#  E (eV)   dos(E)     Int dos(E) EFermi =    8.019 eV
 -15.424  0.4981E-03  0.4981E-05
 -15.414  0.5581E-03  0.1056E-04
 -15.404  0.6250E-03  0.1681E-04
 -15.394  0.6994E-03  0.2381E-04
 -15.384  0.7821E-03  0.3163E-04
 -15.374  0.8741E-03  0.4037E-04
 -15.364  0.9763E-03  0.5013E-04
 -15.354  0.1090E-02  0.6103E-04
 -15.344  0.1216E-02  0.7318E-04
 -15.334  0.1355E-02  0.8673E-04
 -15.324  0.1509E-02  0.1018E-03
 -15.314  0.1680E-02  0.1186E-03
 -15.304  0.1870E-02  0.1373E-03
 -15.294  0.2079E-02  0.1581E-03
 -15.284  0.2310E-02  0.1812E-03
 -15.274  0.2565E-02  0.2069E-03
 -15.264  0.2846E-02  0.2353E-03
 -15.254  0.3156E-02  0.2669E-03
 -15.244  0.3498E-02  0.3018E-03
 -15.234  0.3874E-02  0.3406E-03
 -15.224  0.4288E-02  0.3835E-03
 -15.214  0.4743E-02  0.4309E-03
 -15.204  0.5242E-02  0.4833E-03
 -15.194  0.5791E-02  0.5412E-03
 -15.184  0.6394E-02  0.6052E-03
 -15.174  0.7054E-02  0.6757E-03
 -15.164  0.7777E-02  0.7535E-03
 -15.154  0.8570E-02  0.8392E-03
 -15.144  0.9436E-02  0.9335E-03
 -15.134  0.1038E-01  0.1037E-02
 -15.124  0.1142E-01  0.1152E-02
 -15.114  0.1255E-01  0.1277E-02
 -15.104  0.1379E-01  0.1415E-02
 -15.094  0.1513E-01  0.1566E-02
 -15.084  0.1660E-01  0.1732E-02
 -15.074  0.1820E-01  0.1914E-02
 -15.064  0.1993E-01  0.2114E-02
 -15.054  0.2182E-01  0.2332E-02
 -15.044  0.2388E-01  0.2571E-02
 -15.034  0.2611E-01  0.2832E-02
 -15.024  0.2853E-01  0.3117E-02
 -15.014  0.3116E-01  0.3429E-02
 -15.004  0.3401E-01  0.3769E-02
 -14.994  0.3709E-01  0.4140E-02
 -14.984  0.4043E-01  0.4544E-02
 -14.974  0.4404E-01  0.4984E-02
 -14.964  0.4794E-01  0.5464E-02
 -14.954  0.5215E-01  0.5985E-02
 -14.944  0.5670E-01  0.6552E-02
 -14.934  0.6161E-01  0.7168E-02
 -14.924  0.6690E-01  0.7837E-02
 -14.914  0.7260E-01  0.8563E-02
 -14.904  0.7873E-01  0.9351E-02
 -14.894  0.8533E-01  0.1020E-01
 -14.884  0.9242E-01  0.1113E-01
 -14.874  0.1000E+00  0.1213E-01
 -14.864  0.1082E+00  0.1321E-01
 -14.854  0.1170E+00  0.1438E-01
 -14.844  0.1264E+00  0.1564E-01
 -14.834  0.1365E+00  0.1701E-01
 -14.824  0.1473E+00  0.1848E-01
 -14.814  0.1588E+00  0.2007E-01
 -14.804  0.1712E+00  0.2178E-01
 -14.794  0.1844E+00  0.2363E-01
 -14.784  0.1984E+00  0.2561E-01
 -14.774  0.2135E+00  0.2775E-01
 -14.764  0.2295E+00  0.3004E-01
 -14.754  0.2466E+00  0.3251E-01
 -14.744  0.2647E+00  0.3515E-01
 -14.734  0.2841E+00  0.3799E-01
 -14.724  0.3046E+00  0.4104E-01
 -14.714  0.3265E+00  0.4431E-01
 -14.704  0.3497E+00  0.4780E-01
 -14.694  0.3743E+00  0.5155E-01
 -14.684  0.4004E+00  0.5555E-01
 -14.674  0.4281E+00  0.5983E-01
 -14.664  0.4574E+00  0.6440E-01
 -14.654  0.4883E+00  0.6929E-01
 -14.644  0.5211E+00  0.7450E-01
 -14.634  0.5558E+00  0.8006E-01
 -14.624  0.5923E+00  0.8598E-01
 -14.614  0.6309E+00  0.9229E-01
 -14.604  0.6716E+00  0.9900E-01
 -14.594  0.7145E+00  0.1061E+00
 -14.584  0.7597E+00  0.1137E+00
 -14.574  0.8072E+00  0.1218E+00
 -14.564  0.8572E+00  0.1304E+00
 -14.554  0.9097E+00  0.1395E+00
 -14.544  0.9649E+00  0.1491E+00
 -14.534  0.1023E+01  0.1594E+00
 -14.524  0.1083E+01  0.1702E+00
 -14.514  0.1147E+01  0.1817E+00
 -14.504  0.1214E+01  0.1938E+00
 -14.494  0.1283E+01  0.2066E+00
 -14.484  0.1356E+01  0.2202E+00
 -14.474  0.1433E+01  0.2345E+00
 -14.464  0.1512E+01  0.2497E+00
 -14.454  0.1595E+01  0.2656E+00
 -14.444  0.1682E+01  0.2824E+00
 -14.434  0.1772E+01  0.3001E+00
 -14.424  0.1866E+01  0.3188E+00
 -14.414  0.1964E+01  0.3384E+00
 -14.404  0.2065E+01  0.3591E+00
 -14.394  0.2171E+01  0.3808E+00
 -14.384  0.2281E+01  0.4036E+00
 -14.374  0.2394E+01  0.4275E+00
 -14.364  0.2512E+01  0.4527E+00
 -14.354  0.2635E+01  0.4790E+00
 -14.344  0.2761E+01  0.5066E+00
 -14.334  0.2892E+01  0.5355E+00
 -14.324  0.3027E+01  0.5658E+00
 -14.314  0.3167E+01  0.5975E+00
 -14.304  0.3312E+01  0.6306E+00
 -14.294  0.3461E+01  0.6652E+00
 -14.284  0.3614E+01  0.7013E+00
 -14.274  0.3772E+01  0.7391E+00
 -14.264  0.3935E+01  0.7784E+00
 -14.254  0.4102E+01  0.8194E+00
 -14.244  0.4274E+01  0.8622E+00
 -14.234  0.4451E+01  0.9067E+00
 -14.224  0.4632E+01  0.9530E+00
 -14.214  0.4818E+01  0.1001E+01
 -14.204  0.5008E+01  0.1051E+01
 -14.194  0.5203E+01  0.1103E+01
 -14.184  0.5403E+01  0.1157E+01
 -14.174  0.5606E+01  0.1213E+01
 -14.164  0.5814E+01  0.1272E+01
 -14.154  0.6027E+01  0.1332E+01
 -14.144  0.6243E+01  0.1394E+01
 -14.134  0.6464E+01  0.1459E+01
 -14.124  0.6689E+01  0.1526E+01
 -14.114  0.6917E+01  0.1595E+01
 -14.104  0.7149E+01  0.1666E+01
 -14.094  0.7385E+01  0.1740E+01
 -14.084  0.7625E+01  0.1817E+01
 -14.074  0.7867E+01  0.1895E+01
 -14.064  0.8113E+01  0.1976E+01
 -14.054  0.8362E+01  0.2060E+01
 -14.044  0.8613E+01  0.2146E+01
 -14.034  0.8867E+01  0.2235E+01
 -14.024  0.9123E+01  0.2326E+01
 -14.014  0.9382E+01  0.2420E+01
 -14.004  0.9642E+01  0.2516E+01
 -13.994  0.9904E+01  0.2615E+01
 -13.984  0.1017E+02  0.2717E+01
 -13.974  0.1043E+02  0.2821E+01
 -13.964  0.1070E+02  0.2928E+01
 -13.954  0.1096E+02  0.3038E+01
 -13.944  0.1123E+02  0.3150E+01
 -13.934  0.1150E+02  0.3265E+01
 -13.924  0.1176E+02  0.3383E+01
 -13.914  0.1203E+02  0.3503E+01
 -13.904  0.1229E+02  0.3626E+01
 -13.894  0.1256E+02  0.3752E+01
 -13.884  0.1282E+02  0.3880E+01
 -13.874  0.1308E+02  0.4011E+01
 -13.864  0.1334E+02  0.4144E+01
 -13.854  0.1360E+02  0.4280E+01
 -13.844  0.1385E+02  0.4418E+01
 -13.834  0.1410E+02  0.4559E+01
 -13.824  0.1435E+02  0.4703E+01
 -13.814  0.1459E+02  0.4849E+01
 -13.804  0.1483E+02  0.4997E+01
 -13.794  0.1506E+02  0.5148E+01
 -13.784  0.1529E+02  0.5301E+01
 -13.774  0.1552E+02  0.5456E+01
 -13.764  0.1574E+02  0.5613E+01
 -13.754  0.1595E+02  0.5773E+01
 -13.744  0.1616E+02  0.5934E+01
 -13.734  0.1636E+02  0.6098E+01
 -13.724  0.1656E+02  0.6264E+01
 -13.714  0.1675E+02  0.6431E+01
 -13.704  0.1693E+02  0.6600E+01
 -13.694  0.1710E+02  0.6771E+01
 -13.684  0.1727E+02  0.6944E+01
 -13.674  0.1743E+02  0.7118E+01
 -13.664  0.1758E+02  0.7294E+01
 -13.654  0.1772E+02  0.7471E+01
 -13.644  0.1786E+02  0.7650E+01
 -13.634  0.1798E+02  0.7830E+01
 -13.624  0.1810E+02  0.8011E+01
 -13.614  0.1821E+02  0.8193E+01
 -13.604  0.1830E+02  0.8376E+01
 -13.594  0.1839E+02  0.8560E+01
 -13.584  0.1847E+02  0.8744E+01
 -13.574  0.1854E+02  0.8930E+01
 -13.564  0.1860E+02  0.9116E+01
 -13.554  0.1865E+02  0.9302E+01
 -13.544  0.1868E+02  0.9489E+01
 -13.534  0.1871E+02  0.9676E+01
 -13.524  0.1873E+02  0.9864E+01
 -13.514  0.1874E+02  0.1005E+02
 -13.504  0.1874E+02  0.1024E+02
 -13.494  0.1873E+02  0.1043E+02
 -13.484  0.1870E+02  0.1061E+02
 -13.474  0.1867E+02  0.1080E+02
 -13.464  0.1863E+02  0.1099E+02
 -13.454  0.1858E+02  0.1117E+02
 -13.444  0.1852E+02  0.1136E+02
 -13.434  0.1844E+02  0.1154E+02
 -13.424  0.1836E+02  0.1172E+02
 -13.414  0.1827E+02  0.1191E+02
 -13.404  0.1817E+02  0.1209E+02
 -13.394  0.1806E+02  0.1227E+02
 -13.384  0.1794E+02  0.1245E+02
 -13.374  0.1781E+02  0.1263E+02
 -13.364  0.1767E+02  0.1280E+02
 -13.354  0.1753E+02  0.1298E+02
 -13.344  0.1737E+02  0.1315E+02
 -13.334  0.1721E+02  0.1332E+02
 -13.324  0.1704E+02  0.1350E+02
 -13.314  0.1686E+02  0.1366E+02
 -13.304  0.1668E+02  0.1383E+02
 -13.294  0.1649E+02  0.1400E+02
 -13.284  0.1629E+02  0.1416E+02
 -13.274  0.1608E+02  0.1432E+02
 -13.264  0.1587E+02  0.1448E+02
 -13.254  0.1565E+02  0.1463E+02
 -13.244  0.1543E+02  0.1479E+02
 -13.234  0.1520E+02  0.1494E+02
 -13.224  0.1497E+02  0.1509E+02
 -13.214  0.1473E+02  0.1524E+02
 -13.204  0.1449E+02  0.1538E+02
 -13.194  0.1424E+02  0.1553E+02
 -13.184  0.1399E+02  0.1567E+02
 -13.174  0.1374E+02  0.1580E+02
 -13.164  0.1349E+02  0.1594E+02
 -13.154  0.1323E+02  0.1607E+02
 -13.144  0.1297E+02  0.1620E+02
 -13.134  0.1270E+02  0.1633E+02
 -13.124  0.1244E+02  0.1645E+02
 -13.114  0.1217E+02  0.1657E+02
 -13.104  0.1191E+02  0.1669E+02
 -13.094  0.1164E+02  0.1681E+02
 -13.084  0.1137E+02  0.1692E+02
 -13.074  0.1110E+02  0.1703E+02
 -13.064  0.1084E+02  0.1714E+02
 -13.054  0.1057E+02  0.1725E+02
 -13.044  0.1030E+02  0.1735E+02
 -13.034  0.1004E+02  0.1745E+02
 -13.024  0.9773E+01  0.1755E+02
 -13.014  0.9510E+01  0.1764E+02
 -13.004  0.9249E+01  0.1774E+02
 -12.994  0.8990E+01  0.1783E+02
 -12.984  0.8734E+01  0.1791E+02
 -12.974  0.8479E+01  0.1800E+02
 -12.964  0.8228E+01  0.1808E+02
 -12.954  0.7979E+01  0.1816E+02
 -12.944  0.7734E+01  0.1824E+02
 -12.934  0.7492E+01  0.1831E+02
 -12.924  0.7253E+01  0.1838E+02
 -12.914  0.7018E+01  0.1845E+02
 -12.904  0.6786E+01  0.1852E+02
 -12.894  0.6558E+01  0.1859E+02
 -12.884  0.6334E+01  0.1865E+02
 -12.874  0.6115E+01  0.1871E+02
 -12.864  0.5899E+01  0.1877E+02
 -12.854  0.5688E+01  0.1883E+02
 -12.844  0.5481E+01  0.1888E+02
 -12.834  0.5279E+01  0.1894E+02
 -12.824  0.5081E+01  0.1899E+02
 -12.814  0.4888E+01  0.1904E+02
 -12.804  0.4699E+01  0.1908E+02
 -12.794  0.4515E+01  0.1913E+02
 -12.784  0.4335E+01  0.1917E+02
 -12.774  0.4161E+01  0.1921E+02
 -12.764  0.3991E+01  0.1925E+02
 -12.754  0.3825E+01  0.1929E+02
 -12.744  0.3665E+01  0.1933E+02
 -12.734  0.3509E+01  0.1936E+02
 -12.724  0.3357E+01  0.1940E+02
 -12.714  0.3211E+01  0.1943E+02
 -12.704  0.3068E+01  0.1946E+02
 -12.694  0.2931E+01  0.1949E+02
 -12.684  0.2798E+01  0.1952E+02
 -12.674  0.2669E+01  0.1954E+02
 -12.664  0.2545E+01  0.1957E+02
 -12.654  0.2425E+01  0.1959E+02
 -12.644  0.2309E+01  0.1962E+02
 -12.634  0.2198E+01  0.1964E+02
 -12.624  0.2091E+01  0.1966E+02
 -12.614  0.1987E+01  0.1968E+02
 -12.604  0.1888E+01  0.1970E+02
 -12.594  0.1793E+01  0.1972E+02
 -12.584  0.1701E+01  0.1973E+02
 -12.574  0.1613E+01  0.1975E+02
 -12.564  0.1529E+01  0.1976E+02
 -12.554  0.1448E+01  0.1978E+02
 -12.544  0.1371E+01  0.1979E+02
 -12.534  0.1297E+01  0.1980E+02
 -12.524  0.1226E+01  0.1982E+02
 -12.514  0.1158E+01  0.1983E+02
 -12.504  0.1094E+01  0.1984E+02
 -12.494  0.1032E+01  0.1985E+02
 -12.484  0.9737E+00  0.1986E+02
 -12.474  0.9178E+00  0.1987E+02
 -12.464  0.8645E+00  0.1988E+02
 -12.454  0.8139E+00  0.1989E+02
 -12.444  0.7657E+00  0.1989E+02
 -12.434  0.7200E+00  0.1990E+02
 -12.424  0.6766E+00  0.1991E+02
 -12.414  0.6354E+00  0.1991E+02
 -12.404  0.5963E+00  0.1992E+02
 -12.394  0.5593E+00  0.1993E+02
 -12.384  0.5243E+00  0.1993E+02
 -12.374  0.4912E+00  0.1994E+02
 -12.364  0.4598E+00  0.1994E+02
 -12.354  0.4303E+00  0.1994E+02
 -12.344  0.4023E+00  0.1995E+02
 -12.334  0.3760E+00  0.1995E+02
 -12.324  0.3511E+00  0.1996E+02
 -12.314  0.3277E+00  0.1996E+02
 -12.304  0.3057E+00  0.1996E+02
 -12.294  0.2849E+00  0.1996E+02
 -12.284  0.2654E+00  0.1997E+02
 -12.274  0.2471E+00  0.1997E+02
 -12.264  0.2299E+00  0.1997E+02
 -12.254  0.2138E+00  0.1997E+02
 -12.244  0.1987E+00  0.1998E+02
 -12.234  0.1845E+00  0.1998E+02
 -12.224  0.1712E+00  0.1998E+02
 -12.214  0.1588E+00  0.1998E+02
 -12.204  0.1472E+00  0.1998E+02
 -12.194  0.1364E+00  0.1998E+02
 -12.184  0.1263E+00  0.1999E+02
 -12.174  0.1168E+00  0.1999E+02
 -12.164  0.1080E+00  0.1999E+02
 -12.154  0.9981E-01  0.1999E+02
 -12.144  0.9217E-01  0.1999E+02
 -12.134  0.8506E-01  0.1999E+02
 -12.124  0.7845E-01  0.1999E+02
 -12.114  0.7231E-01  0.1999E+02
 -12.104  0.6660E-01  0.1999E+02
 -12.094  0.6131E-01  0.1999E+02
 -12.084  0.5640E-01  0.1999E+02
 -12.074  0.5186E-01  0.1999E+02
 -12.064  0.4765E-01  0.1999E+02
 -12.054  0.4375E-01  0.2000E+02
 -12.044  0.4015E-01  0.2000E+02
 -12.034  0.3682E-01  0.2000E+02
 -12.024  0.3374E-01  0.2000E+02
 -12.014  0.3090E-01  0.2000E+02
 -12.004  0.2828E-01  0.2000E+02
 -11.994  0.2587E-01  0.2000E+02
 -11.984  0.2365E-01  0.2000E+02
 -11.974  0.2161E-01  0.2000E+02
 -11.964  0.1973E-01  0.2000E+02
 -11.954  0.1800E-01  0.2000E+02
 -11.944  0.1641E-01  0.2000E+02
 -11.934  0.1495E-01  0.2000E+02
 -11.924  0.1362E-01  0.2000E+02
 -11.914  0.1239E-01  0.2000E+02
 -11.904  0.1127E-01  0.2000E+02
 -11.894  0.1024E-01  0.2000E+02
 -11.884  0.9304E-02  0.2000E+02
 -11.874  0.8446E-02  0.2000E+02
 -11.864  0.7662E-02  0.2000E+02
 -11.854  0.6946E-02  0.2000E+02
 -11.844  0.6293E-02  0.2000E+02
 -11.834  0.5697E-02  0.2000E+02
 -11.824  0.5155E-02  0.2000E+02
 -11.814  0.4661E-02  0.2000E+02
 -11.804  0.4212E-02  0.2000E+02
 -11.794  0.3804E-02  0.2000E+02
 -11.784  0.3433E-02  0.2000E+02
 -11.774  0.3096E-02  0.2000E+02
 -11.764  0.2791E-02  0.2000E+02
 -11.754  0.2514E-02  0.2000E+02
 -11.744  0.2263E-02  0.2000E+02
 -11.734  0.2036E-02  0.2000E+02
 -11.724  0.1830E-02  0.2000E+02
 -11.714  0.1644E-02  0.2000E+02
 -11.704  0.1476E-02  0.2000E+02
 -11.694  0.1324E-02  0.2000E+02
 -11.684  0.1188E-02  0.2000E+02
 -11.674  0.1064E-02  0.2000E+02
 -11.664  0.9530E-03  0.2000E+02
 -11.654  0.8529E-03  0.2000E+02
 -11.644  0.7628E-03  0.2000E+02
 -11.634  0.6817E-03  0.2000E+02
 -11.624  0.6089E-03  0.2000E+02
 -11.614  0.5435E-03  0.2000E+02
 -11.604  0.4849E-03  0.2000E+02
 -11.594  0.4322E-03  0.2000E+02
 -11.584  0.3851E-03  0.2000E+02
 -11.574  0.3428E-03  0.2000E+02
 -11.564  0.3050E-03  0.2000E+02
 -11.554  0.2712E-03  0.2000E+02
 -11.544  0.2410E-03  0.2000E+02
 -11.534  0.2140E-03  0.2000E+02
 -11.524  0.1899E-03  0.2000E+02
 -11.514  0.1684E-03  0.2000E+02
 -11.504  0.1492E-03  0.2000E+02
 -11.494  0.1322E-03  0.2000E+02
 -11.484  0.1170E-03  0.2000E+02
 -11.474  0.1035E-03  0.2000E+02
 -11.464  0.9146E-04  0.2000E+02
 -11.454  0.8080E-04  0.2000E+02
 -11.444  0.7132E-04  0.2000E+02
 -11.434  0.6292E-04  0.2000E+02
 -11.424  0.5547E-04  0.2000E+02
 -11.414  0.4888E-04  0.2000E+02
 -11.404  0.4303E-04  0.2000E+02
 -11.394  0.3786E-04  0.2000E+02
 -11.384  0.3330E-04  0.2000E+02
 -11.374  0.2926E-04  0.2000E+02
 -11.364  0.2569E-04  0.2000E+02
 -11.354  0.2255E-04  0.2000E+02
 -11.344  0.1978E-04  0.2000E+02
 -11.334  0.1733E-04  0.2000E+02
 -11.324  0.1518E-04  0.2000E+02
 -11.314  0.1329E-04  0.2000E+02
 -11.304  0.1162E-04  0.2000E+02
 -11.294  0.1016E-04  0.2000E+02
 -11.284  0.8875E-05  0.2000E+02
 -11.274  0.7748E-05  0.2000E+02
 -11.264  0.6760E-05  0.2000E+02
 -11.254  0.5893E-05  0.2000E+02
 -11.244  0.5135E-05  0.2000E+02
 -11.234  0.4471E-05  0.2000E+02
 -11.224  0.3890E-05  0.2000E+02
 -11.214  0.3383E-05  0.2000E+02
 -11.204  0.2940E-05  0.2000E+02
 -11.194  0.2553E-05  0.2000E+02
 -11.184  0.2215E-05  0.2000E+02
 -11.174  0.1921E-05  0.2000E+02
 -11.164  0.1665E-05  0.2000E+02
 -11.154  0.1442E-05  0.2000E+02
 -11.144  0.1248E-05  0.2000E+02
 -11.134  0.1080E-05  0.2000E+02
 -11.124  0.9334E-06  0.2000E+02
 -11.114  0.8064E-06  0.2000E+02
 -11.104  0.6961E-06  0.2000E+02
 -11.094  0.6005E-06  0.2000E+02
 -11.084  0.5177E-06  0.2000E+02
 -11.074  0.4461E-06  0.2000E+02
 -11.064  0.3841E-06  0.2000E+02
 -11.054  0.3305E-06  0.2000E+02
 -11.044  0.2842E-06  0.2000E+02
 -11.034  0.2442E-06  0.2000E+02
 -11.024  0.2097E-06  0.2000E+02
 -11.014  0.1799E-06  0.2000E+02
 -11.004  0.1543E-06  0.2000E+02
 -10.994  0.1323E-06  0.2000E+02
 -10.984  0.1133E-06  0.2000E+02
 -10.974  0.9695E-07  0.2000E+02
 -10.964  0.8292E-07  0.2000E+02
 -10.954  0.7088E-07  0.2000E+02
 -10.944  0.6054E-07  0.2000E+02
 -10.934  0.5168E-07  0.2000E+02
 -10.924  0.4409E-07  0.2000E+02
 -10.914  0.3759E-07  0.2000E+02
 -10.904  0.3202E-07  0.2000E+02
 -10.894  0.2726E-07  0.2000E+02
 -10.884  0.2319E-07  0.2000E+02
 -10.874  0.1972E-07  0.2000E+02
 -10.864  0.1676E-07  0.2000E+02
 -10.854  0.1423E-07  0.2000E+02
 -10.844  0.1207E-07  0.2000E+02
 -10.834  0.1024E-07  0.2000E+02
 -10.824  0.8676E-08  0.2000E+02
 -10.814  0.7348E-08  0.2000E+02
 -10.804  0.6218E-08  0.2000E+02
 -10.794  0.5259E-08  0.2000E+02
 -10.784  0.4445E-08  0.2000E+02
 -10.774  0.3754E-08  0.2000E+02
 -10.764  0.3169E-08  0.2000E+02
 -10.754  0.2673E-08  0.2000E+02
 -10.744  0.2253E-08  0.2000E+02
 -10.734  0.1898E-08  0.2000E+02
 -10.724  0.1598E-08  0.2000E+02
 -10.714  0.1344E-08  0.2000E+02
 -10.704  0.1130E-08  0.2000E+02
 -10.694  0.9494E-09  0.2000E+02
 -10.684  0.7971E-09  0.2000E+02
 -10.674  0.6688E-09  0.2000E+02
 -10.664  0.5608E-09  0.2000E+02
 -10.654  0.4699E-09  0.2000E+02
 -10.644  0.3935E-09  0.2000E+02
 -10.634  0.3293E-09  0.2000E+02
 -10.624  0.2753E-09  0.2000E+02
 -10.614  0.2301E-09  0.2000E+02
 -10.604  0.1922E-09  0.2000E+02
 -10.594  0.1604E-09  0.2000E+02
 -10.584  0.1338E-09  0.2000E+02
 -10.574  0.1115E-09  0.2000E+02
 -10.564  0.9285E-10  0.2000E+02
 -10.554  0.7729E-10  0.2000E+02
 -10.544  0.6429E-10  0.2000E+02
 -10.534  0.5344E-10  0.2000E+02
 -10.524  0.4439E-10  0.2000E+02
 -10.514  0.3685E-10  0.2000E+02
 -10.504  0.3057E-10  0.2000E+02
 -10.494  0.2535E-10  0.2000E+02
 -10.484  0.2100E-10  0.2000E+02
 -10.474  0.1739E-10  0.2000E+02
 -10.464  0.1438E-10  0.2000E+02
 -10.454  0.1189E-10  0.2000E+02
 -10.444  0.9827E-11  0.2000E+02
 -10.434  0.8115E-11  0.2000E+02
 -10.424  0.6696E-11  0.2000E+02
 -10.414  0.5522E-11  0.2000E+02
 -10.404  0.4550E-11  0.2000E+02
 -10.394  0.3747E-11  0.2000E+02
 -10.384  0.3084E-11  0.2000E+02
 -10.374  0.2536E-11  0.2000E+02
 -10.364  0.2085E-11  0.2000E+02
 -10.354  0.1712E-11  0.2000E+02
 -10.344  0.1405E-11  0.2000E+02
 -10.334  0.1153E-11  0.2000E+02
 -10.324  0.9449E-12  0.2000E+02
 -10.314  0.7740E-12  0.2000E+02
 -10.304  0.6336E-12  0.2000E+02
 -10.294  0.5183E-12  0.2000E+02
 -10.284  0.4237E-12  0.2000E+02
 -10.274  0.3462E-12  0.2000E+02
 -10.264  0.2826E-12  0.2000E+02
 -10.254  0.2306E-12  0.2000E+02
 -10.244  0.1880E-12  0.2000E+02
 -10.234  0.1532E-12  0.2000E+02
 -10.224  0.1247E-12  0.2000E+02
 -10.214  0.1015E-12  0.2000E+02
 -10.204  0.8252E-13  0.2000E+02
 -10.194  0.6706E-13  0.2000E+02
 -10.184  0.5446E-13  0.2000E+02
 -10.174  0.4419E-13  0.2000E+02
 -10.164  0.3584E-13  0.2000E+02
 -10.154  0.2905E-13  0.2000E+02
 -10.144  0.2352E-13  0.2000E+02
 -10.134  0.1904E-13  0.2000E+02
 -10.124  0.1540E-13  0.2000E+02
 -10.114  0.1245E-13  0.2000E+02
 -10.104  0.1005E-13  0.2000E+02
 -10.094  0.8115E-14  0.2000E+02
 -10.084  0.6546E-14  0.2000E+02
 -10.074  0.5277E-14  0.2000E+02
 -10.064  0.4251E-14  0.2000E+02
 -10.054  0.3422E-14  0.2000E+02
 -10.044  0.2753E-14  0.2000E+02
 -10.034  0.2213E-14  0.2000E+02
 -10.024  0.1778E-14  0.2000E+02
 -10.014  0.1428E-14  0.2000E+02
 -10.004  0.1146E-14  0.2000E+02
  -9.994  0.9185E-15  0.2000E+02
  -9.984  0.7360E-15  0.2000E+02
  -9.974  0.5893E-15  0.2000E+02
  -9.964  0.4716E-15  0.2000E+02
  -9.954  0.3771E-15  0.2000E+02
  -9.944  0.3014E-15  0.2000E+02
  -9.934  0.2407E-15  0.2000E+02
  -9.924  0.1921E-15  0.2000E+02
  -9.914  0.1532E-15  0.2000E+02
  -9.904  0.1221E-15  0.2000E+02
  -9.894  0.9723E-16  0.2000E+02
  -9.884  0.7739E-16  0.2000E+02
  -9.874  0.6156E-16  0.2000E+02
  -9.864  0.4893E-16  0.2000E+02
  -9.854  0.3886E-16  0.2000E+02
  -9.844  0.3085E-16  0.2000E+02
  -9.834  0.2447E-16  0.2000E+02
  -9.824  0.1940E-16  0.2000E+02
  -9.814  0.1537E-16  0.2000E+02
  -9.804  0.1217E-16  0.2000E+02
  -9.794  0.9626E-17  0.2000E+02
  -9.784  0.7610E-17  0.2000E+02
  -9.774  0.6013E-17  0.2000E+02
  -9.764  0.4747E-17  0.2000E+02
  -9.754  0.3746E-17  0.2000E+02
  -9.744  0.2954E-17  0.2000E+02
  -9.734  0.2327E-17  0.2000E+02
  -9.724  0.1833E-17  0.2000E+02
  -9.714  0.1442E-17  0.2000E+02
  -9.704  0.1134E-17  0.2000E+02
  -9.694  0.8912E-18  0.2000E+02
  -9.684  0.6999E-18  0.2000E+02
  -9.674  0.5493E-18  0.2000E+02
  -9.664  0.4308E-18  0.2000E+02
  -9.654  0.3376E-18  0.2000E+02
  -9.644  0.2644E-18  0.2000E+02
  -9.634  0.2070E-18  0.2000E+02
  -9.624  0.1619E-18  0.2000E+02
  -9.614  0.1265E-18  0.2000E+02
  -9.604  0.9885E-19  0.2000E+02
  -9.594  0.7716E-19  0.2000E+02
  -9.584  0.6019E-19  0.2000E+02
  -9.574  0.4692E-19  0.2000E+02
  -9.564  0.3655E-19  0.2000E+02
  -9.554  0.2846E-19  0.2000E+02
  -9.544  0.2214E-19  0.2000E+02
  -9.534  0.1721E-19  0.2000E+02
  -9.524  0.1337E-19  0.2000E+02
  -9.514  0.1038E-19  0.2000E+02
  -9.504  0.8057E-20  0.2000E+02
  -9.494  0.6247E-20  0.2000E+02
  -9.484  0.4841E-20  0.2000E+02
  -9.474  0.3748E-20  0.2000E+02
  -9.464  0.2901E-20  0.2000E+02
  -9.454  0.2243E-20  0.2000E+02
  -9.444  0.1733E-20  0.2000E+02
  -9.434  0.1339E-20  0.2000E+02
  -9.424  0.1033E-20  0.2000E+02
  -9.414  0.7968E-21  0.2000E+02
  -9.404  0.6141E-21  0.2000E+02
  -9.394  0.4730E-21  0.2000E+02
