#  E (eV)   dos(E)     Int dos(E) EFermi =    7.981 eV
 -15.480  0.5034E-03  0.5034E-05
 -15.470  0.5641E-03  0.1067E-04
 -15.460  0.6316E-03  0.1699E-04
 -15.450  0.7067E-03  0.2406E-04
 -15.440  0.7903E-03  0.3196E-04
 -15.430  0.8832E-03  0.4079E-04
 -15.420  0.9864E-03  0.5066E-04
 -15.410  0.1101E-02  0.6167E-04
 -15.400  0.1228E-02  0.7394E-04
 -15.390  0.1369E-02  0.8763E-04
 -15.380  0.1525E-02  0.1029E-03
 -15.370  0.1697E-02  0.1198E-03
 -15.360  0.1888E-02  0.1387E-03
 -15.350  0.2099E-02  0.1597E-03
 -15.340  0.2332E-02  0.1830E-03
 -15.330  0.2589E-02  0.2089E-03
 -15.320  0.2873E-02  0.2377E-03
 -15.310  0.3186E-02  0.2695E-03
 -15.300  0.3531E-02  0.3048E-03
 -15.290  0.3910E-02  0.3439E-03
 -15.280  0.4327E-02  0.3872E-03
 -15.270  0.4786E-02  0.4351E-03
 -15.260  0.5290E-02  0.4880E-03
 -15.250  0.5844E-02  0.5464E-03
 -15.240  0.6451E-02  0.6109E-03
 -15.230  0.7116E-02  0.6821E-03
 -15.220  0.7846E-02  0.7605E-03
 -15.210  0.8644E-02  0.8470E-03
 -15.200  0.9518E-02  0.9421E-03
 -15.190  0.1047E-01  0.1047E-02
 -15.180  0.1152E-01  0.1162E-02
 -15.170  0.1266E-01  0.1289E-02
 -15.160  0.1390E-01  0.1428E-02
 -15.150  0.1526E-01  0.1580E-02
 -15.140  0.1673E-01  0.1748E-02
 -15.130  0.1834E-01  0.1931E-02
 -15.120  0.2009E-01  0.2132E-02
 -15.110  0.2200E-01  0.2352E-02
 -15.100  0.2407E-01  0.2593E-02
 -15.090  0.2632E-01  0.2856E-02
 -15.080  0.2875E-01  0.3143E-02
 -15.070  0.3140E-01  0.3457E-02
 -15.060  0.3427E-01  0.3800E-02
 -15.050  0.3737E-01  0.4174E-02
 -15.040  0.4073E-01  0.4581E-02
 -15.030  0.4436E-01  0.5025E-02
 -15.020  0.4829E-01  0.5507E-02
 -15.010  0.5253E-01  0.6033E-02
 -15.000  0.5711E-01  0.6604E-02
 -14.990  0.6205E-01  0.7224E-02
 -14.980  0.6737E-01  0.7898E-02
 -14.970  0.7310E-01  0.8629E-02
 -14.960  0.7928E-01  0.9422E-02
 -14.950  0.8591E-01  0.1028E-01
 -14.940  0.9305E-01  0.1121E-01
 -14.930  0.1007E+00  0.1222E-01
 -14.920  0.1089E+00  0.1331E-01
 -14.910  0.1178E+00  0.1449E-01
 -14.900  0.1272E+00  0.1576E-01
 -14.890  0.1374E+00  0.1713E-01
 -14.880  0.1482E+00  0.1861E-01
 -14.870  0.1598E+00  0.2021E-01
 -14.860  0.1722E+00  0.2193E-01
 -14.850  0.1855E+00  0.2379E-01
 -14.840  0.1997E+00  0.2579E-01
 -14.830  0.2148E+00  0.2793E-01
 -14.820  0.2309E+00  0.3024E-01
 -14.810  0.2480E+00  0.3272E-01
 -14.800  0.2663E+00  0.3538E-01
 -14.790  0.2857E+00  0.3824E-01
 -14.780  0.3064E+00  0.4131E-01
 -14.770  0.3283E+00  0.4459E-01
 -14.760  0.3516E+00  0.4810E-01
 -14.750  0.3763E+00  0.5187E-01
 -14.740  0.4026E+00  0.5589E-01
 -14.730  0.4303E+00  0.6020E-01
 -14.720  0.4598E+00  0.6479E-01
 -14.710  0.4909E+00  0.6970E-01
 -14.700  0.5238E+00  0.7494E-01
 -14.690  0.5586E+00  0.8053E-01
 -14.680  0.5953E+00  0.8648E-01
 -14.670  0.6340E+00  0.9282E-01
 -14.660  0.6749E+00  0.9957E-01
 -14.650  0.7180E+00  0.1067E+00
 -14.640  0.7633E+00  0.1144E+00
 -14.630  0.8110E+00  0.1225E+00
 -14.620  0.8612E+00  0.1311E+00
 -14.610  0.9139E+00  0.1402E+00
 -14.600  0.9692E+00  0.1499E+00
 -14.590  0.1027E+01  0.1602E+00
 -14.580  0.1088E+01  0.1711E+00
 -14.570  0.1152E+01  0.1826E+00
 -14.560  0.1219E+01  0.1948E+00
 -14.550  0.1289E+01  0.2077E+00
 -14.540  0.1362E+01  0.2213E+00
 -14.530  0.1438E+01  0.2357E+00
 -14.520  0.1518E+01  0.2509E+00
 -14.510  0.1601E+01  0.2669E+00
 -14.500  0.1688E+01  0.2838E+00
 -14.490  0.1779E+01  0.3016E+00
 -14.480  0.1873E+01  0.3203E+00
 -14.470  0.1971E+01  0.3400E+00
 -14.460  0.2073E+01  0.3607E+00
 -14.450  0.2179E+01  0.3825E+00
 -14.440  0.2289E+01  0.4054E+00
 -14.430  0.2403E+01  0.4294E+00
 -14.420  0.2521E+01  0.4546E+00
 -14.410  0.2643E+01  0.4811E+00
 -14.400  0.2770E+01  0.5088E+00
 -14.390  0.2901E+01  0.5378E+00
 -14.380  0.3037E+01  0.5681E+00
 -14.370  0.3177E+01  0.5999E+00
 -14.360  0.3322E+01  0.6331E+00
 -14.350  0.3471E+01  0.6679E+00
 -14.340  0.3625E+01  0.7041E+00
 -14.330  0.3783E+01  0.7419E+00
 -14.320  0.3946E+01  0.7814E+00
 -14.310  0.4114E+01  0.8225E+00
 -14.300  0.4286E+01  0.8654E+00
 -14.290  0.4463E+01  0.9100E+00
 -14.280  0.4644E+01  0.9565E+00
 -14.270  0.4830E+01  0.1005E+01
 -14.260  0.5021E+01  0.1055E+01
 -14.250  0.5216E+01  0.1107E+01
 -14.240  0.5416E+01  0.1161E+01
 -14.230  0.5620E+01  0.1218E+01
 -14.220  0.5828E+01  0.1276E+01
 -14.210  0.6041E+01  0.1336E+01
 -14.200  0.6258E+01  0.1399E+01
 -14.190  0.6479E+01  0.1464E+01
 -14.180  0.6703E+01  0.1531E+01
 -14.170  0.6932E+01  0.1600E+01
 -14.160  0.7164E+01  0.1672E+01
 -14.150  0.7400E+01  0.1746E+01
 -14.140  0.7640E+01  0.1822E+01
 -14.130  0.7883E+01  0.1901E+01
 -14.120  0.8128E+01  0.1982E+01
 -14.110  0.8377E+01  0.2066E+01
 -14.100  0.8629E+01  0.2152E+01
 -14.090  0.8883E+01  0.2241E+01
 -14.080  0.9139E+01  0.2332E+01
 -14.070  0.9397E+01  0.2426E+01
 -14.060  0.9658E+01  0.2523E+01
 -14.050  0.9920E+01  0.2622E+01
 -14.040  0.1018E+02  0.2724E+01
 -14.030  0.1045E+02  0.2828E+01
 -14.020  0.1071E+02  0.2936E+01
 -14.010  0.1098E+02  0.3045E+01
 -14.000  0.1125E+02  0.3158E+01
 -13.990  0.1151E+02  0.3273E+01
 -13.980  0.1178E+02  0.3391E+01
 -13.970  0.1204E+02  0.3511E+01
 -13.960  0.1231E+02  0.3634E+01
 -13.950  0.1257E+02  0.3760E+01
 -13.940  0.1283E+02  0.3888E+01
 -13.930  0.1310E+02  0.4019E+01
 -13.920  0.1335E+02  0.4153E+01
 -13.910  0.1361E+02  0.4289E+01
 -13.900  0.1386E+02  0.4428E+01
 -13.890  0.1411E+02  0.4569E+01
 -13.880  0.1436E+02  0.4712E+01
 -13.870  0.1460E+02  0.4858E+01
 -13.860  0.1484E+02  0.5007E+01
 -13.850  0.1508E+02  0.5157E+01
 -13.840  0.1531E+02  0.5310E+01
 -13.830  0.1553E+02  0.5466E+01
 -13.820  0.1575E+02  0.5623E+01
 -13.810  0.1596E+02  0.5783E+01
 -13.800  0.1617E+02  0.5945E+01
 -13.790  0.1637E+02  0.6108E+01
 -13.780  0.1657E+02  0.6274E+01
 -13.770  0.1676E+02  0.6442E+01
 -13.760  0.1694E+02  0.6611E+01
 -13.750  0.1711E+02  0.6782E+01
 -13.740  0.1728E+02  0.6955E+01
 -13.730  0.1744E+02  0.7129E+01
 -13.720  0.1759E+02  0.7305E+01
 -13.710  0.1773E+02  0.7483E+01
 -13.700  0.1786E+02  0.7661E+01
 -13.690  0.1799E+02  0.7841E+01
 -13.680  0.1810E+02  0.8022E+01
 -13.670  0.1821E+02  0.8204E+01
 -13.660  0.1831E+02  0.8387E+01
 -13.650  0.1839E+02  0.8571E+01
 -13.640  0.1847E+02  0.8756E+01
 -13.630  0.1854E+02  0.8941E+01
 -13.620  0.1860E+02  0.9127E+01
 -13.610  0.1865E+02  0.9314E+01
 -13.600  0.1869E+02  0.9501E+01
 -13.590  0.1871E+02  0.9688E+01
 -13.580  0.1873E+02  0.9875E+01
 -13.570  0.1874E+02  0.1006E+02
 -13.560  0.1874E+02  0.1025E+02
 -13.550  0.1872E+02  0.1044E+02
 -13.540  0.1870E+02  0.1062E+02
 -13.530  0.1867E+02  0.1081E+02
 -13.520  0.1863E+02  0.1100E+02
 -13.510  0.1857E+02  0.1118E+02
 -13.500  0.1851E+02  0.1137E+02
 -13.490  0.1844E+02  0.1155E+02
 -13.480  0.1836E+02  0.1174E+02
 -13.470  0.1826E+02  0.1192E+02
 -13.460  0.1816E+02  0.1210E+02
 -13.450  0.1805E+02  0.1228E+02
 -13.440  0.1793E+02  0.1246E+02
 -13.430  0.1780E+02  0.1264E+02
 -13.420  0.1766E+02  0.1281E+02
 -13.410  0.1752E+02  0.1299E+02
 -13.400  0.1736E+02  0.1316E+02
 -13.390  0.1720E+02  0.1334E+02
 -13.380  0.1703E+02  0.1351E+02
 -13.370  0.1685E+02  0.1367E+02
 -13.360  0.1667E+02  0.1384E+02
 -13.350  0.1647E+02  0.1401E+02
 -13.340  0.1628E+02  0.1417E+02
 -13.330  0.1607E+02  0.1433E+02
 -13.320  0.1586E+02  0.1449E+02
 -13.310  0.1564E+02  0.1464E+02
 -13.300  0.1542E+02  0.1480E+02
 -13.290  0.1519E+02  0.1495E+02
 -13.280  0.1496E+02  0.1510E+02
 -13.270  0.1472E+02  0.1525E+02
 -13.260  0.1448E+02  0.1539E+02
 -13.250  0.1423E+02  0.1553E+02
 -13.240  0.1398E+02  0.1567E+02
 -13.230  0.1373E+02  0.1581E+02
 -13.220  0.1347E+02  0.1595E+02
 -13.210  0.1321E+02  0.1608E+02
 -13.200  0.1295E+02  0.1621E+02
 -13.190  0.1269E+02  0.1633E+02
 -13.180  0.1242E+02  0.1646E+02
 -13.170  0.1216E+02  0.1658E+02
 -13.160  0.1189E+02  0.1670E+02
 -13.150  0.1162E+02  0.1682E+02
 -13.140  0.1136E+02  0.1693E+02
 -13.130  0.1109E+02  0.1704E+02
 -13.120  0.1082E+02  0.1715E+02
 -13.110  0.1055E+02  0.1725E+02
 -13.100  0.1029E+02  0.1736E+02
 -13.090  0.1002E+02  0.1746E+02
 -13.080  0.9757E+01  0.1755E+02
 -13.070  0.9494E+01  0.1765E+02
 -13.060  0.9233E+01  0.1774E+02
 -13.050  0.8975E+01  0.1783E+02
 -13.040  0.8718E+01  0.1792E+02
 -13.030  0.8464E+01  0.1800E+02
 -13.020  0.8213E+01  0.1808E+02
 -13.010  0.7965E+01  0.1816E+02
 -13.000  0.7719E+01  0.1824E+02
 -12.990  0.7477E+01  0.1832E+02
 -12.980  0.7238E+01  0.1839E+02
 -12.970  0.7003E+01  0.1846E+02
 -12.960  0.6772E+01  0.1853E+02
 -12.950  0.6544E+01  0.1859E+02
 -12.940  0.6321E+01  0.1866E+02
 -12.930  0.6101E+01  0.1872E+02
 -12.920  0.5886E+01  0.1878E+02
 -12.910  0.5675E+01  0.1883E+02
 -12.900  0.5469E+01  0.1889E+02
 -12.890  0.5267E+01  0.1894E+02
 -12.880  0.5069E+01  0.1899E+02
 -12.870  0.4876E+01  0.1904E+02
 -12.860  0.4687E+01  0.1909E+02
 -12.850  0.4504E+01  0.1913E+02
 -12.840  0.4324E+01  0.1917E+02
 -12.830  0.4150E+01  0.1922E+02
 -12.820  0.3980E+01  0.1926E+02
 -12.810  0.3815E+01  0.1929E+02
 -12.800  0.3655E+01  0.1933E+02
 -12.790  0.3499E+01  0.1936E+02
 -12.780  0.3348E+01  0.1940E+02
 -12.770  0.3201E+01  0.1943E+02
 -12.760  0.3060E+01  0.1946E+02
 -12.750  0.2922E+01  0.1949E+02
 -12.740  0.2789E+01  0.1952E+02
 -12.730  0.2661E+01  0.1954E+02
 -12.720  0.2537E+01  0.1957E+02
 -12.710  0.2417E+01  0.1959E+02
 -12.700  0.2302E+01  0.1962E+02
 -12.690  0.2191E+01  0.1964E+02
 -12.680  0.2084E+01  0.1966E+02
 -12.670  0.1981E+01  0.1968E+02
 -12.660  0.1882E+01  0.1970E+02
 -12.650  0.1787E+01  0.1972E+02
 -12.640  0.1695E+01  0.1973E+02
 -12.630  0.1607E+01  0.1975E+02
 -12.620  0.1523E+01  0.1976E+02
 -12.610  0.1443E+01  0.1978E+02
 -12.600  0.1366E+01  0.1979E+02
 -12.590  0.1292E+01  0.1981E+02
 -12.580  0.1221E+01  0.1982E+02
 -12.570  0.1154E+01  0.1983E+02
 -12.560  0.1090E+01  0.1984E+02
 -12.550  0.1028E+01  0.1985E+02
 -12.540  0.9698E+00  0.1986E+02
 -12.530  0.9141E+00  0.1987E+02
 -12.520  0.8610E+00  0.1988E+02
 -12.510  0.8105E+00  0.1989E+02
 -12.500  0.7626E+00  0.1989E+02
 -12.490  0.7170E+00  0.1990E+02
 -12.480  0.6737E+00  0.1991E+02
 -12.470  0.6326E+00  0.1991E+02
 -12.460  0.5937E+00  0.1992E+02
 -12.450  0.5569E+00  0.1993E+02
 -12.440  0.5220E+00  0.1993E+02
 -12.430  0.4890E+00  0.1994E+02
 -12.420  0.4577E+00  0.1994E+02
 -12.410  0.4283E+00  0.1994E+02
 -12.400  0.4004E+00  0.1995E+02
 -12.390  0.3742E+00  0.1995E+02
 -12.380  0.3494E+00  0.1996E+02
 -12.370  0.3261E+00  0.1996E+02
 -12.360  0.3042E+00  0.1996E+02
 -12.350  0.2835E+00  0.1997E+02
 -12.340  0.2641E+00  0.1997E+02
 -12.330  0.2459E+00  0.1997E+02
 -12.320  0.2288E+00  0.1997E+02
 -12.310  0.2127E+00  0.1997E+02
 -12.300  0.1976E+00  0.1998E+02
 -12.290  0.1835E+00  0.1998E+02
 -12.280  0.1703E+00  0.1998E+02
 -12.270  0.1580E+00  0.1998E+02
 -12.260  0.1464E+00  0.1998E+02
 -12.250  0.1356E+00  0.1998E+02
 -12.240  0.1256E+00  0.1999E+02
 -12.230  0.1162E+00  0.1999E+02
 -12.220  0.1074E+00  0.1999E+02
 -12.210  0.9924E-01  0.1999E+02
 -12.200  0.9163E-01  0.1999E+02
 -12.190  0.8456E-01  0.1999E+02
 -12.180  0.7799E-01  0.1999E+02
 -12.170  0.7188E-01  0.1999E+02
 -12.160  0.6620E-01  0.1999E+02
 -12.150  0.6094E-01  0.1999E+02
 -12.140  0.5606E-01  0.1999E+02
 -12.130  0.5154E-01  0.1999E+02
 -12.120  0.4735E-01  0.2000E+02
 -12.110  0.4347E-01  0.2000E+02
 -12.100  0.3989E-01  0.2000E+02
 -12.090  0.3658E-01  0.2000E+02
 -12.080  0.3352E-01  0.2000E+02
 -12.070  0.3070E-01  0.2000E+02
 -12.060  0.2810E-01  0.2000E+02
 -12.050  0.2570E-01  0.2000E+02
 -12.040  0.2349E-01  0.2000E+02
 -12.030  0.2146E-01  0.2000E+02
 -12.020  0.1959E-01  0.2000E+02
 -12.010  0.1787E-01  0.2000E+02
 -12.000  0.1630E-01  0.2000E+02
 -11.990  0.1485E-01  0.2000E+02
 -11.980  0.1352E-01  0.2000E+02
 -11.970  0.1230E-01  0.2000E+02
 -11.960  0.1119E-01  0.2000E+02
 -11.950  0.1017E-01  0.2000E+02
 -11.940  0.9236E-02  0.2000E+02
 -11.930  0.8384E-02  0.2000E+02
 -11.920  0.7605E-02  0.2000E+02
 -11.910  0.6894E-02  0.2000E+02
 -11.900  0.6245E-02  0.2000E+02
 -11.890  0.5654E-02  0.2000E+02
 -11.880  0.5116E-02  0.2000E+02
 -11.870  0.4625E-02  0.2000E+02
 -11.860  0.4179E-02  0.2000E+02
 -11.850  0.3774E-02  0.2000E+02
 -11.840  0.3406E-02  0.2000E+02
 -11.830  0.3072E-02  0.2000E+02
 -11.820  0.2768E-02  0.2000E+02
 -11.810  0.2493E-02  0.2000E+02
 -11.800  0.2244E-02  0.2000E+02
 -11.790  0.2019E-02  0.2000E+02
 -11.780  0.1815E-02  0.2000E+02
 -11.770  0.1630E-02  0.2000E+02
 -11.760  0.1464E-02  0.2000E+02
 -11.750  0.1313E-02  0.2000E+02
 -11.740  0.1177E-02  0.2000E+02
 -11.730  0.1055E-02  0.2000E+02
 -11.720  0.9448E-03  0.2000E+02
 -11.710  0.8454E-03  0.2000E+02
 -11.700  0.7561E-03  0.2000E+02
 -11.690  0.6757E-03  0.2000E+02
 -11.680  0.6035E-03  0.2000E+02
 -11.670  0.5387E-03  0.2000E+02
 -11.660  0.4805E-03  0.2000E+02
 -11.650  0.4283E-03  0.2000E+02
 -11.640  0.3815E-03  0.2000E+02
 -11.630  0.3397E-03  0.2000E+02
 -11.620  0.3022E-03  0.2000E+02
 -11.610  0.2687E-03  0.2000E+02
 -11.600  0.2387E-03  0.2000E+02
 -11.590  0.2120E-03  0.2000E+02
 -11.580  0.1881E-03  0.2000E+02
 -11.570  0.1668E-03  0.2000E+02
 -11.560  0.1478E-03  0.2000E+02
 -11.550  0.1309E-03  0.2000E+02
 -11.540  0.1158E-03  0.2000E+02
 -11.530  0.1025E-03  0.2000E+02
 -11.520  0.9056E-04  0.2000E+02
 -11.510  0.7999E-04  0.2000E+02
 -11.500  0.7061E-04  0.2000E+02
 -11.490  0.6229E-04  0.2000E+02
 -11.480  0.5491E-04  0.2000E+02
 -11.470  0.4838E-04  0.2000E+02
 -11.460  0.4259E-04  0.2000E+02
 -11.450  0.3747E-04  0.2000E+02
 -11.440  0.3295E-04  0.2000E+02
 -11.430  0.2895E-04  0.2000E+02
 -11.420  0.2542E-04  0.2000E+02
 -11.410  0.2231E-04  0.2000E+02
 -11.400  0.1956E-04  0.2000E+02
 -11.390  0.1715E-04  0.2000E+02
 -11.380  0.1502E-04  0.2000E+02
 -11.370  0.1314E-04  0.2000E+02
 -11.360  0.1150E-04  0.2000E+02
 -11.350  0.1005E-04  0.2000E+02
 -11.340  0.8777E-05  0.2000E+02
 -11.330  0.7662E-05  0.2000E+02
 -11.320  0.6684E-05  0.2000E+02
 -11.310  0.5827E-05  0.2000E+02
 -11.300  0.5077E-05  0.2000E+02
 -11.290  0.4420E-05  0.2000E+02
 -11.280  0.3846E-05  0.2000E+02
 -11.270  0.3344E-05  0.2000E+02
 -11.260  0.2906E-05  0.2000E+02
 -11.250  0.2523E-05  0.2000E+02
 -11.240  0.2190E-05  0.2000E+02
 -11.230  0.1899E-05  0.2000E+02
 -11.220  0.1646E-05  0.2000E+02
 -11.210  0.1425E-05  0.2000E+02
 -11.200  0.1234E-05  0.2000E+02
 -11.190  0.1067E-05  0.2000E+02
 -11.180  0.9222E-06  0.2000E+02
 -11.170  0.7966E-06  0.2000E+02
 -11.160  0.6876E-06  0.2000E+02
 -11.150  0.5932E-06  0.2000E+02
 -11.140  0.5114E-06  0.2000E+02
 -11.130  0.4406E-06  0.2000E+02
 -11.120  0.3793E-06  0.2000E+02
 -11.110  0.3263E-06  0.2000E+02
 -11.100  0.2806E-06  0.2000E+02
 -11.090  0.2411E-06  0.2000E+02
 -11.080  0.2070E-06  0.2000E+02
 -11.070  0.1776E-06  0.2000E+02
 -11.060  0.1523E-06  0.2000E+02
 -11.050  0.1306E-06  0.2000E+02
 -11.040  0.1118E-06  0.2000E+02
 -11.030  0.9569E-07  0.2000E+02
 -11.020  0.8184E-07  0.2000E+02
 -11.010  0.6995E-07  0.2000E+02
 -11.000  0.5975E-07  0.2000E+02
 -10.990  0.5100E-07  0.2000E+02
 -10.980  0.4350E-07  0.2000E+02
 -10.970  0.3708E-07  0.2000E+02
 -10.960  0.3159E-07  0.2000E+02
 -10.950  0.2689E-07  0.2000E+02
 -10.940  0.2288E-07  0.2000E+02
 -10.930  0.1945E-07  0.2000E+02
 -10.920  0.1653E-07  0.2000E+02
 -10.910  0.1403E-07  0.2000E+02
 -10.900  0.1191E-07  0.2000E+02
 -10.890  0.1010E-07  0.2000E+02
 -10.880  0.8555E-08  0.2000E+02
 -10.870  0.7245E-08  0.2000E+02
 -10.860  0.6131E-08  0.2000E+02
 -10.850  0.5185E-08  0.2000E+02
 -10.840  0.4382E-08  0.2000E+02
 -10.830  0.3701E-08  0.2000E+02
 -10.820  0.3123E-08  0.2000E+02
 -10.810  0.2634E-08  0.2000E+02
 -10.800  0.2221E-08  0.2000E+02
 -10.790  0.1870E-08  0.2000E+02
 -10.780  0.1574E-08  0.2000E+02
 -10.770  0.1324E-08  0.2000E+02
 -10.760  0.1113E-08  0.2000E+02
 -10.750  0.9354E-09  0.2000E+02
 -10.740  0.7853E-09  0.2000E+02
 -10.730  0.6588E-09  0.2000E+02
 -10.720  0.5524E-09  0.2000E+02
 -10.710  0.4628E-09  0.2000E+02
 -10.700  0.3875E-09  0.2000E+02
 -10.690  0.3243E-09  0.2000E+02
 -10.680  0.2711E-09  0.2000E+02
 -10.670  0.2266E-09  0.2000E+02
 -10.660  0.1892E-09  0.2000E+02
 -10.650  0.1579E-09  0.2000E+02
 -10.640  0.1317E-09  0.2000E+02
 -10.630  0.1097E-09  0.2000E+02
 -10.620  0.9141E-10  0.2000E+02
 -10.610  0.7608E-10  0.2000E+02
 -10.600  0.6328E-10  0.2000E+02
 -10.590  0.5260E-10  0.2000E+02
 -10.580  0.4369E-10  0.2000E+02
 -10.570  0.3627E-10  0.2000E+02
 -10.560  0.3008E-10  0.2000E+02
 -10.550  0.2494E-10  0.2000E+02
 -10.540  0.2066E-10  0.2000E+02
 -10.530  0.1710E-10  0.2000E+02
 -10.520  0.1415E-10  0.2000E+02
 -10.510  0.1170E-10  0.2000E+02
 -10.500  0.9667E-11  0.2000E+02
 -10.490  0.7981E-11  0.2000E+02
 -10.480  0.6586E-11  0.2000E+02
 -10.470  0.5430E-11  0.2000E+02
 -10.460  0.4475E-11  0.2000E+02
 -10.450  0.3685E-11  0.2000E+02
 -10.440  0.3032E-11  0.2000E+02
 -10.430  0.2494E-11  0.2000E+02
 -10.420  0.2049E-11  0.2000E+02
 -10.410  0.1683E-11  0.2000E+02
 -10.400  0.1381E-11  0.2000E+02
 -10.390  0.1133E-11  0.2000E+02
 -10.380  0.9287E-12  0.2000E+02
 -10.370  0.7607E-12  0.2000E+02
 -10.360  0.6227E-12  0.2000E+02
 -10.350  0.5093E-12  0.2000E+02
 -10.340  0.4164E-12  0.2000E+02
 -10.330  0.3401E-12  0.2000E+02
 -10.320  0.2777E-12  0.2000E+02
 -10.310  0.2265E-12  0.2000E+02
 -10.300  0.1847E-12  0.2000E+02
 -10.290  0.1505E-12  0.2000E+02
 -10.280  0.1225E-12  0.2000E+02
 -10.270  0.9968E-13  0.2000E+02
 -10.260  0.8105E-13  0.2000E+02
 -10.250  0.6586E-13  0.2000E+02
 -10.240  0.5348E-13  0.2000E+02
 -10.230  0.4339E-13  0.2000E+02
 -10.220  0.3519E-13  0.2000E+02
 -10.210  0.2852E-13  0.2000E+02
 -10.200  0.2309E-13  0.2000E+02
 -10.190  0.1869E-13  0.2000E+02
 -10.180  0.1512E-13  0.2000E+02
 -10.170  0.1222E-13  0.2000E+02
 -10.160  0.9867E-14  0.2000E+02
 -10.150  0.7964E-14  0.2000E+02
 -10.140  0.6424E-14  0.2000E+02
 -10.130  0.5178E-14  0.2000E+02
 -10.120  0.4171E-14  0.2000E+02
 -10.110  0.3358E-14  0.2000E+02
 -10.100  0.2701E-14  0.2000E+02
 -10.090  0.2171E-14  0.2000E+02
 -10.080  0.1744E-14  0.2000E+02
 -10.070  0.1401E-14  0.2000E+02
 -10.060  0.1124E-14  0.2000E+02
 -10.050  0.9009E-15  0.2000E+02
 -10.040  0.7218E-15  0.2000E+02
 -10.030  0.5779E-15  0.2000E+02
 -10.020  0.4624E-15  0.2000E+02
 -10.010  0.3698E-15  0.2000E+02
 -10.000  0.2955E-15  0.2000E+02
  -9.990  0.2360E-15  0.2000E+02
  -9.980  0.1883E-15  0.2000E+02
  -9.970  0.1502E-15  0.2000E+02
  -9.960  0.1197E-15  0.2000E+02
  -9.950  0.9530E-16  0.2000E+02
  -9.940  0.7585E-16  0.2000E+02
  -9.930  0.6033E-16  0.2000E+02
  -9.920  0.4795E-16  0.2000E+02
  -9.910  0.3808E-16  0.2000E+02
  -9.900  0.3023E-16  0.2000E+02
  -9.890  0.2398E-16  0.2000E+02
  -9.880  0.1901E-16  0.2000E+02
  -9.870  0.1506E-16  0.2000E+02
  -9.860  0.1192E-16  0.2000E+02
  -9.850  0.9429E-17  0.2000E+02
  -9.840  0.7454E-17  0.2000E+02
  -9.830  0.5889E-17  0.2000E+02
  -9.820  0.4649E-17  0.2000E+02
  -9.810  0.3668E-17  0.2000E+02
  -9.800  0.2892E-17  0.2000E+02
  -9.790  0.2279E-17  0.2000E+02
  -9.780  0.1794E-17  0.2000E+02
  -9.770  0.1412E-17  0.2000E+02
  -9.760  0.1110E-17  0.2000E+02
  -9.750  0.8724E-18  0.2000E+02
  -9.740  0.6851E-18  0.2000E+02
  -9.730  0.5376E-18  0.2000E+02
  -9.720  0.4216E-18  0.2000E+02
  -9.710  0.3304E-18  0.2000E+02
  -9.700  0.2588E-18  0.2000E+02
  -9.690  0.2025E-18  0.2000E+02
  -9.680  0.1584E-18  0.2000E+02
  -9.670  0.1238E-18  0.2000E+02
  -9.660  0.9671E-19  0.2000E+02
  -9.650  0.7549E-19  0.2000E+02
  -9.640  0.5888E-19  0.2000E+02
  -9.630  0.4590E-19  0.2000E+02
  -9.620  0.3575E-19  0.2000E+02
  -9.610  0.2783E-19  0.2000E+02
  -9.600  0.2165E-19  0.2000E+02
  -9.590  0.1683E-19  0.2000E+02
  -9.580  0.1308E-19  0.2000E+02
  -9.570  0.1015E-19  0.2000E+02
  -9.560  0.7877E-20  0.2000E+02
  -9.550  0.6108E-20  0.2000E+02
  -9.540  0.4732E-20  0.2000E+02
  -9.530  0.3664E-20  0.2000E+02
  -9.520  0.2835E-20  0.2000E+02
  -9.510  0.2192E-20  0.2000E+02
  -9.500  0.1694E-20  0.2000E+02
  -9.490  0.1308E-20  0.2000E+02
  -9.480  0.1010E-20  0.2000E+02
  -9.470  0.7786E-21  0.2000E+02
  -9.460  0.6000E-21  0.2000E+02
  -9.450  0.4621E-21  0.2000E+02
