#  E (eV)   dos(E)     Int dos(E) EFermi =    7.986 eV
 -13.850  0.0000E+00  0.0000E+00
 -13.840  0.5992E+02  0.5566E+00
 -13.830  0.9096E+02  0.1282E+01
 -13.820  0.9977E+02  0.2425E+01
 -13.810  0.6273E+02  0.3282E+01
 -13.800  0.2890E+02  0.3688E+01
 -13.790  0.1350E+02  0.3891E+01
 -13.780  0.5667E+01  0.3984E+01
 -13.770  0.1420E+02  0.4078E+01
 -13.760  0.1456E+02  0.4214E+01
 -13.750  0.1740E+02  0.4369E+01
 -13.740  0.2202E+02  0.4560E+01
 -13.730  0.2111E+02  0.4766E+01
 -13.720  0.2099E+02  0.4977E+01
 -13.710  0.2265E+02  0.5191E+01
 -13.700  0.2728E+02  0.5443E+01
 -13.690  0.3275E+02  0.5740E+01
 -13.680  0.2409E+02  0.6029E+01
 -13.670  0.2492E+02  0.6271E+01
 -13.660  0.2987E+02  0.6543E+01
 -13.650  0.4099E+02  0.6888E+01
 -13.640  0.4142E+02  0.7305E+01
 -13.630  0.4029E+02  0.7708E+01
 -13.620  0.4145E+02  0.8118E+01
 -13.610  0.4031E+02  0.8532E+01
 -13.600  0.3982E+02  0.8924E+01
 -13.590  0.3595E+02  0.9278E+01
 -13.580  0.3291E+02  0.9657E+01
 -13.570  0.1270E+02  0.9906E+01
 -13.560  0.2541E+02  0.1005E+02
 -13.550  0.3221E+02  0.1036E+02
 -13.540  0.2981E+02  0.1069E+02
 -13.530  0.2994E+02  0.1096E+02
 -13.520  0.3125E+02  0.1128E+02
 -13.510  0.3254E+02  0.1159E+02
 -13.500  0.3361E+02  0.1192E+02
 -13.490  0.3513E+02  0.1227E+02
 -13.480  0.3794E+02  0.1263E+02
 -13.470  0.4789E+02  0.1305E+02
 -13.460  0.6823E+02  0.1367E+02
 -13.450  0.5543E+02  0.1430E+02
 -13.440  0.4111E+02  0.1478E+02
 -13.430  0.3058E+02  0.1514E+02
 -13.420  0.2295E+02  0.1540E+02
 -13.410  0.1839E+02  0.1560E+02
 -13.400  0.1431E+02  0.1576E+02
 -13.390  0.1193E+02  0.1591E+02
 -13.380  0.8298E+01  0.1600E+02
 -13.370  0.1001E+02  0.1608E+02
 -13.360  0.1482E+02  0.1619E+02
 -13.350  0.2697E+02  0.1640E+02
 -13.340  0.4928E+02  0.1677E+02
 -13.330  0.7701E+02  0.1745E+02
 -13.320  0.1051E+03  0.1833E+02
 -13.310  0.6541E+02  0.1922E+02
 -13.300  0.5916E+02  0.1980E+02
 -13.290  0.0000E+00  0.2000E+02
 -13.280  0.0000E+00  0.2000E+02
 -13.270  0.0000E+00  0.2000E+02
 -13.260  0.0000E+00  0.2000E+02
 -13.250  0.0000E+00  0.2000E+02
 -13.240  0.0000E+00  0.2000E+02
 -13.230  0.0000E+00  0.2000E+02
 -13.220  0.0000E+00  0.2000E+02
 -13.210  0.0000E+00  0.2000E+02
 -13.200  0.0000E+00  0.2000E+02
 -13.190  0.0000E+00  0.2000E+02
 -13.180  0.0000E+00  0.2000E+02
 -13.170  0.0000E+00  0.2000E+02
 -13.160  0.0000E+00  0.2000E+02
 -13.150  0.0000E+00  0.2000E+02
 -13.140  0.0000E+00  0.2000E+02
 -13.130  0.0000E+00  0.2000E+02
 -13.120  0.0000E+00  0.2000E+02
 -13.110  0.0000E+00  0.2000E+02
 -13.100  0.0000E+00  0.2000E+02
 -13.090  0.0000E+00  0.2000E+02
 -13.080  0.0000E+00  0.2000E+02
 -13.070  0.0000E+00  0.2000E+02
 -13.060  0.0000E+00  0.2000E+02
 -13.050  0.0000E+00  0.2000E+02
 -13.040  0.0000E+00  0.2000E+02
 -13.030  0.0000E+00  0.2000E+02
 -13.020  0.0000E+00  0.2000E+02
 -13.010  0.0000E+00  0.2000E+02
 -13.000  0.0000E+00  0.2000E+02
 -12.990  0.0000E+00  0.2000E+02
 -12.980  0.0000E+00  0.2000E+02
 -12.970  0.0000E+00  0.2000E+02
 -12.960  0.0000E+00  0.2000E+02
 -12.950  0.0000E+00  0.2000E+02
 -12.940  0.0000E+00  0.2000E+02
 -12.930  0.0000E+00  0.2000E+02
 -12.920  0.0000E+00  0.2000E+02
 -12.910  0.0000E+00  0.2000E+02
 -12.900  0.0000E+00  0.2000E+02
 -12.890  0.0000E+00  0.2000E+02
 -12.880  0.0000E+00  0.2000E+02
 -12.870  0.0000E+00  0.2000E+02
 -12.860  0.0000E+00  0.2000E+02
 -12.850  0.0000E+00  0.2000E+02
 -12.840  0.0000E+00  0.2000E+02
 -12.830  0.0000E+00  0.2000E+02
 -12.820  0.0000E+00  0.2000E+02
 -12.810  0.0000E+00  0.2000E+02
 -12.800  0.0000E+00  0.2000E+02
 -12.790  0.0000E+00  0.2000E+02
 -12.780  0.0000E+00  0.2000E+02
 -12.770  0.0000E+00  0.2000E+02
 -12.760  0.0000E+00  0.2000E+02
 -12.750  0.0000E+00  0.2000E+02
 -12.740  0.0000E+00  0.2000E+02
 -12.730  0.0000E+00  0.2000E+02
 -12.720  0.0000E+00  0.2000E+02
 -12.710  0.0000E+00  0.2000E+02
 -12.700  0.0000E+00  0.2000E+02
 -12.690  0.0000E+00  0.2000E+02
 -12.680  0.0000E+00  0.2000E+02
 -12.670  0.0000E+00  0.2000E+02
 -12.660  0.0000E+00  0.2000E+02
 -12.650  0.0000E+00  0.2000E+02
 -12.640  0.0000E+00  0.2000E+02
 -12.630  0.0000E+00  0.2000E+02
 -12.620  0.0000E+00  0.2000E+02
 -12.610  0.0000E+00  0.2000E+02
 -12.600  0.0000E+00  0.2000E+02
 -12.590  0.0000E+00  0.2000E+02
 -12.580  0.0000E+00  0.2000E+02
 -12.570  0.0000E+00  0.2000E+02
 -12.560  0.0000E+00  0.2000E+02
 -12.550  0.0000E+00  0.2000E+02
 -12.540  0.0000E+00  0.2000E+02
 -12.530  0.0000E+00  0.2000E+02
 -12.520  0.0000E+00  0.2000E+02
 -12.510  0.0000E+00  0.2000E+02
 -12.500  0.0000E+00  0.2000E+02
 -12.490  0.0000E+00  0.2000E+02
 -12.480  0.0000E+00  0.2000E+02
 -12.470  0.0000E+00  0.2000E+02
 -12.460  0.0000E+00  0.2000E+02
 -12.450  0.0000E+00  0.2000E+02
 -12.440  0.0000E+00  0.2000E+02
 -12.430  0.0000E+00  0.2000E+02
 -12.420  0.0000E+00  0.2000E+02
 -12.410  0.0000E+00  0.2000E+02
 -12.400  0.0000E+00  0.2000E+02
 -12.390  0.0000E+00  0.2000E+02
 -12.380  0.0000E+00  0.2000E+02
 -12.370  0.0000E+00  0.2000E+02
 -12.360  0.0000E+00  0.2000E+02
 -12.350  0.0000E+00  0.2000E+02
 -12.340  0.0000E+00  0.2000E+02
 -12.330  0.0000E+00  0.2000E+02
 -12.320  0.0000E+00  0.2000E+02
 -12.310  0.0000E+00  0.2000E+02
 -12.300  0.0000E+00  0.2000E+02
 -12.290  0.0000E+00  0.2000E+02
 -12.280  0.0000E+00  0.2000E+02
 -12.270  0.0000E+00  0.2000E+02
 -12.260  0.0000E+00  0.2000E+02
 -12.250  0.0000E+00  0.2000E+02
 -12.240  0.0000E+00  0.2000E+02
 -12.230  0.0000E+00  0.2000E+02
 -12.220  0.0000E+00  0.2000E+02
 -12.210  0.0000E+00  0.2000E+02
 -12.200  0.0000E+00  0.2000E+02
 -12.190  0.0000E+00  0.2000E+02
 -12.180  0.0000E+00  0.2000E+02
 -12.170  0.0000E+00  0.2000E+02
 -12.160  0.0000E+00  0.2000E+02
 -12.150  0.0000E+00  0.2000E+02
 -12.140  0.0000E+00  0.2000E+02
 -12.130  0.0000E+00  0.2000E+02
 -12.120  0.0000E+00  0.2000E+02
 -12.110  0.0000E+00  0.2000E+02
 -12.100  0.0000E+00  0.2000E+02
 -12.090  0.0000E+00  0.2000E+02
 -12.080  0.0000E+00  0.2000E+02
 -12.070  0.0000E+00  0.2000E+02
 -12.060  0.0000E+00  0.2000E+02
 -12.050  0.0000E+00  0.2000E+02
 -12.040  0.0000E+00  0.2000E+02
 -12.030  0.0000E+00  0.2000E+02
 -12.020  0.0000E+00  0.2000E+02
 -12.010  0.0000E+00  0.2000E+02
 -12.000  0.0000E+00  0.2000E+02
 -11.990  0.0000E+00  0.2000E+02
 -11.980  0.0000E+00  0.2000E+02
 -11.970  0.0000E+00  0.2000E+02
 -11.960  0.0000E+00  0.2000E+02
 -11.950  0.0000E+00  0.2000E+02
 -11.940  0.0000E+00  0.2000E+02
 -11.930  0.0000E+00  0.2000E+02
 -11.920  0.0000E+00  0.2000E+02
 -11.910  0.0000E+00  0.2000E+02
 -11.900  0.0000E+00  0.2000E+02
 -11.890  0.0000E+00  0.2000E+02
 -11.880  0.0000E+00  0.2000E+02
 -11.870  0.0000E+00  0.2000E+02
 -11.860  0.0000E+00  0.2000E+02
 -11.850  0.0000E+00  0.2000E+02
 -11.840  0.0000E+00  0.2000E+02
 -11.830  0.0000E+00  0.2000E+02
 -11.820  0.0000E+00  0.2000E+02
 -11.810  0.0000E+00  0.2000E+02
 -11.800  0.0000E+00  0.2000E+02
 -11.790  0.0000E+00  0.2000E+02
 -11.780  0.0000E+00  0.2000E+02
 -11.770  0.0000E+00  0.2000E+02
 -11.760  0.0000E+00  0.2000E+02
 -11.750  0.0000E+00  0.2000E+02
 -11.740  0.0000E+00  0.2000E+02
 -11.730  0.0000E+00  0.2000E+02
 -11.720  0.0000E+00  0.2000E+02
 -11.710  0.0000E+00  0.2000E+02
 -11.700  0.0000E+00  0.2000E+02
 -11.690  0.0000E+00  0.2000E+02
 -11.680  0.0000E+00  0.2000E+02
 -11.670  0.0000E+00  0.2000E+02
 -11.660  0.0000E+00  0.2000E+02
 -11.650  0.0000E+00  0.2000E+02
 -11.640  0.0000E+00  0.2000E+02
 -11.630  0.0000E+00  0.2000E+02
 -11.620  0.0000E+00  0.2000E+02
 -11.610  0.0000E+00  0.2000E+02
 -11.600  0.0000E+00  0.2000E+02
 -11.590  0.0000E+00  0.2000E+02
 -11.580  0.0000E+00  0.2000E+02
 -11.570  0.0000E+00  0.2000E+02
 -11.560  0.0000E+00  0.2000E+02
 -11.550  0.0000E+00  0.2000E+02
 -11.540  0.0000E+00  0.2000E+02
 -11.530  0.0000E+00  0.2000E+02
 -11.520  0.0000E+00  0.2000E+02
 -11.510  0.0000E+00  0.2000E+02
 -11.500  0.0000E+00  0.2000E+02
 -11.490  0.0000E+00  0.2000E+02
 -11.480  0.0000E+00  0.2000E+02
 -11.470  0.0000E+00  0.2000E+02
 -11.460  0.0000E+00  0.2000E+02
 -11.450  0.0000E+00  0.2000E+02
 -11.440  0.0000E+00  0.2000E+02
 -11.430  0.0000E+00  0.2000E+02
 -11.420  0.0000E+00  0.2000E+02
 -11.410  0.0000E+00  0.2000E+02
 -11.400  0.0000E+00  0.2000E+02
 -11.390  0.0000E+00  0.2000E+02
 -11.380  0.0000E+00  0.2000E+02
 -11.370  0.0000E+00  0.2000E+02
 -11.360  0.0000E+00  0.2000E+02
 -11.350  0.0000E+00  0.2000E+02
 -11.340  0.0000E+00  0.2000E+02
 -11.330  0.0000E+00  0.2000E+02
 -11.320  0.0000E+00  0.2000E+02
 -11.310  0.0000E+00  0.2000E+02
 -11.300  0.0000E+00  0.2000E+02
 -11.290  0.0000E+00  0.2000E+02
 -11.280  0.0000E+00  0.2000E+02
 -11.270  0.0000E+00  0.2000E+02
 -11.260  0.0000E+00  0.2000E+02
 -11.250  0.0000E+00  0.2000E+02
 -11.240  0.0000E+00  0.2000E+02
 -11.230  0.0000E+00  0.2000E+02
 -11.220  0.0000E+00  0.2000E+02
 -11.210  0.0000E+00  0.2000E+02
 -11.200  0.0000E+00  0.2000E+02
 -11.190  0.0000E+00  0.2000E+02
 -11.180  0.0000E+00  0.2000E+02
 -11.170  0.0000E+00  0.2000E+02
 -11.160  0.0000E+00  0.2000E+02
 -11.150  0.0000E+00  0.2000E+02
 -11.140  0.0000E+00  0.2000E+02
 -11.130  0.0000E+00  0.2000E+02
 -11.120  0.0000E+00  0.2000E+02
 -11.110  0.0000E+00  0.2000E+02
 -11.100  0.0000E+00  0.2000E+02
 -11.090  0.0000E+00  0.2000E+02
 -11.080  0.0000E+00  0.2000E+02
 -11.070  0.0000E+00  0.2000E+02
 -11.060  0.0000E+00  0.2000E+02
 -11.050  0.0000E+00  0.2000E+02
 -11.040  0.0000E+00  0.2000E+02
 -11.030  0.0000E+00  0.2000E+02
 -11.020  0.0000E+00  0.2000E+02
 -11.010  0.0000E+00  0.2000E+02
 -11.000  0.0000E+00  0.2000E+02
 -10.990  0.0000E+00  0.2000E+02
 -10.980  0.0000E+00  0.2000E+02
 -10.970  0.0000E+00  0.2000E+02
 -10.960  0.0000E+00  0.2000E+02
 -10.950  0.0000E+00  0.2000E+02
 -10.940  0.0000E+00  0.2000E+02
 -10.930  0.0000E+00  0.2000E+02
 -10.920  0.0000E+00  0.2000E+02
 -10.910  0.0000E+00  0.2000E+02
 -10.900  0.0000E+00  0.2000E+02
 -10.890  0.0000E+00  0.2000E+02
 -10.880  0.0000E+00  0.2000E+02
 -10.870  0.0000E+00  0.2000E+02
 -10.860  0.0000E+00  0.2000E+02
 -10.850  0.0000E+00  0.2000E+02
 -10.840  0.0000E+00  0.2000E+02
 -10.830  0.0000E+00  0.2000E+02
 -10.820  0.0000E+00  0.2000E+02
 -10.810  0.0000E+00  0.2000E+02
 -10.800  0.0000E+00  0.2000E+02
 -10.790  0.0000E+00  0.2000E+02
 -10.780  0.0000E+00  0.2000E+02
 -10.770  0.0000E+00  0.2000E+02
 -10.760  0.0000E+00  0.2000E+02
 -10.750  0.0000E+00  0.2000E+02
 -10.740  0.0000E+00  0.2000E+02
 -10.730  0.0000E+00  0.2000E+02
 -10.720  0.0000E+00  0.2000E+02
 -10.710  0.0000E+00  0.2000E+02
 -10.700  0.0000E+00  0.2000E+02
 -10.690  0.0000E+00  0.2000E+02
 -10.680  0.0000E+00  0.2000E+02
 -10.670  0.0000E+00  0.2000E+02
 -10.660  0.0000E+00  0.2000E+02
 -10.650  0.0000E+00  0.2000E+02
 -10.640  0.0000E+00  0.2000E+02
 -10.630  0.0000E+00  0.2000E+02
 -10.620  0.0000E+00  0.2000E+02
 -10.610  0.0000E+00  0.2000E+02
 -10.600  0.0000E+00  0.2000E+02
 -10.590  0.0000E+00  0.2000E+02
 -10.580  0.0000E+00  0.2000E+02
 -10.570  0.0000E+00  0.2000E+02
 -10.560  0.0000E+00  0.2000E+02
 -10.550  0.0000E+00  0.2000E+02
 -10.540  0.0000E+00  0.2000E+02
 -10.530  0.0000E+00  0.2000E+02
 -10.520  0.0000E+00  0.2000E+02
 -10.510  0.0000E+00  0.2000E+02
 -10.500  0.0000E+00  0.2000E+02
 -10.490  0.0000E+00  0.2000E+02
 -10.480  0.0000E+00  0.2000E+02
 -10.470  0.0000E+00  0.2000E+02
 -10.460  0.0000E+00  0.2000E+02
 -10.450  0.0000E+00  0.2000E+02
 -10.440  0.0000E+00  0.2000E+02
 -10.430  0.0000E+00  0.2000E+02
 -10.420  0.0000E+00  0.2000E+02
 -10.410  0.0000E+00  0.2000E+02
 -10.400  0.0000E+00  0.2000E+02
 -10.390  0.0000E+00  0.2000E+02
 -10.380  0.0000E+00  0.2000E+02
 -10.370  0.0000E+00  0.2000E+02
 -10.360  0.0000E+00  0.2000E+02
 -10.350  0.0000E+00  0.2000E+02
 -10.340  0.0000E+00  0.2000E+02
 -10.330  0.0000E+00  0.2000E+02
 -10.320  0.0000E+00  0.2000E+02
 -10.310  0.0000E+00  0.2000E+02
 -10.300  0.0000E+00  0.2000E+02
 -10.290  0.0000E+00  0.2000E+02
 -10.280  0.0000E+00  0.2000E+02
 -10.270  0.0000E+00  0.2000E+02
 -10.260  0.0000E+00  0.2000E+02
 -10.250  0.0000E+00  0.2000E+02
 -10.240  0.0000E+00  0.2000E+02
 -10.230  0.0000E+00  0.2000E+02
 -10.220  0.0000E+00  0.2000E+02
 -10.210  0.0000E+00  0.2000E+02
 -10.200  0.0000E+00  0.2000E+02
 -10.190  0.0000E+00  0.2000E+02
 -10.180  0.0000E+00  0.2000E+02
 -10.170  0.0000E+00  0.2000E+02
 -10.160  0.0000E+00  0.2000E+02
 -10.150  0.0000E+00  0.2000E+02
 -10.140  0.0000E+00  0.2000E+02
 -10.130  0.0000E+00  0.2000E+02
 -10.120  0.0000E+00  0.2000E+02
 -10.110  0.0000E+00  0.2000E+02
 -10.100  0.0000E+00  0.2000E+02
 -10.090  0.0000E+00  0.2000E+02
 -10.080  0.0000E+00  0.2000E+02
 -10.070  0.0000E+00  0.2000E+02
 -10.060  0.0000E+00  0.2000E+02
 -10.050  0.0000E+00  0.2000E+02
 -10.040  0.0000E+00  0.2000E+02
 -10.030  0.0000E+00  0.2000E+02
 -10.020  0.0000E+00  0.2000E+02
 -10.010  0.0000E+00  0.2000E+02
 -10.000  0.0000E+00  0.2000E+02
  -9.990  0.0000E+00  0.2000E+02
  -9.980  0.0000E+00  0.2000E+02
  -9.970  0.0000E+00  0.2000E+02
  -9.960  0.0000E+00  0.2000E+02
  -9.950  0.0000E+00  0.2000E+02
  -9.940  0.0000E+00  0.2000E+02
  -9.930  0.0000E+00  0.2000E+02
  -9.920  0.0000E+00  0.2000E+02
  -9.910  0.0000E+00  0.2000E+02
  -9.900  0.0000E+00  0.2000E+02
  -9.890  0.0000E+00  0.2000E+02
  -9.880  0.0000E+00  0.2000E+02
  -9.870  0.0000E+00  0.2000E+02
  -9.860  0.0000E+00  0.2000E+02
  -9.850  0.0000E+00  0.2000E+02
  -9.840  0.0000E+00  0.2000E+02
  -9.830  0.0000E+00  0.2000E+02
  -9.820  0.0000E+00  0.2000E+02
  -9.810  0.0000E+00  0.2000E+02
  -9.800  0.0000E+00  0.2000E+02
  -9.790  0.0000E+00  0.2000E+02
  -9.780  0.0000E+00  0.2000E+02
  -9.770  0.0000E+00  0.2000E+02
  -9.760  0.0000E+00  0.2000E+02
  -9.750  0.0000E+00  0.2000E+02
  -9.740  0.0000E+00  0.2000E+02
  -9.730  0.0000E+00  0.2000E+02
  -9.720  0.0000E+00  0.2000E+02
  -9.710  0.0000E+00  0.2000E+02
  -9.700  0.0000E+00  0.2000E+02
  -9.690  0.0000E+00  0.2000E+02
  -9.680  0.0000E+00  0.2000E+02
  -9.670  0.0000E+00  0.2000E+02
  -9.660  0.0000E+00  0.2000E+02
  -9.650  0.0000E+00  0.2000E+02
  -9.640  0.0000E+00  0.2000E+02
  -9.630  0.0000E+00  0.2000E+02
  -9.620  0.0000E+00  0.2000E+02
  -9.610  0.0000E+00  0.2000E+02
  -9.600  0.0000E+00  0.2000E+02
  -9.590  0.0000E+00  0.2000E+02
  -9.580  0.0000E+00  0.2000E+02
  -9.570  0.0000E+00  0.2000E+02
  -9.560  0.0000E+00  0.2000E+02
  -9.550  0.0000E+00  0.2000E+02
  -9.540  0.0000E+00  0.2000E+02
  -9.530  0.0000E+00  0.2000E+02
  -9.520  0.0000E+00  0.2000E+02
  -9.510  0.0000E+00  0.2000E+02
  -9.500  0.0000E+00  0.2000E+02
  -9.490  0.0000E+00  0.2000E+02
  -9.480  0.0000E+00  0.2000E+02
  -9.470  0.0000E+00  0.2000E+02
  -9.460  0.0000E+00  0.2000E+02
  -9.450  0.0000E+00  0.2000E+02
  -9.440  0.0000E+00  0.2000E+02
  -9.430  0.0000E+00  0.2000E+02
  -9.420  0.0000E+00  0.2000E+02
  -9.410  0.0000E+00  0.2000E+02
  -9.400  0.0000E+00  0.2000E+02
  -9.390  0.0000E+00  0.2000E+02
  -9.380  0.0000E+00  0.2000E+02
  -9.370  0.0000E+00  0.2000E+02
  -9.360  0.0000E+00  0.2000E+02
  -9.350  0.0000E+00  0.2000E+02
  -9.340  0.0000E+00  0.2000E+02
  -9.330  0.0000E+00  0.2000E+02
  -9.320  0.0000E+00  0.2000E+02
  -9.310  0.0000E+00  0.2000E+02
  -9.300  0.0000E+00  0.2000E+02
  -9.290  0.0000E+00  0.2000E+02
  -9.280  0.0000E+00  0.2000E+02
  -9.270  0.0000E+00  0.2000E+02
  -9.260  0.0000E+00  0.2000E+02
  -9.250  0.0000E+00  0.2000E+02
  -9.240  0.0000E+00  0.2000E+02
  -9.230  0.0000E+00  0.2000E+02
  -9.220  0.0000E+00  0.2000E+02
  -9.210  0.0000E+00  0.2000E+02
  -9.200  0.0000E+00  0.2000E+02
  -9.190  0.0000E+00  0.2000E+02
  -9.180  0.0000E+00  0.2000E+02
  -9.170  0.0000E+00  0.2000E+02
  -9.160  0.0000E+00  0.2000E+02
  -9.150  0.0000E+00  0.2000E+02
  -9.140  0.0000E+00  0.2000E+02
  -9.130  0.0000E+00  0.2000E+02
  -9.120  0.0000E+00  0.2000E+02
  -9.110  0.0000E+00  0.2000E+02
  -9.100  0.0000E+00  0.2000E+02
  -9.090  0.0000E+00  0.2000E+02
  -9.080  0.0000E+00  0.2000E+02
  -9.070  0.0000E+00  0.2000E+02
  -9.060  0.0000E+00  0.2000E+02
  -9.050  0.0000E+00  0.2000E+02
  -9.040  0.0000E+00  0.2000E+02
  -9.030  0.0000E+00  0.2000E+02
  -9.020  0.0000E+00  0.2000E+02
  -9.010  0.0000E+00  0.2000E+02
  -9.000  0.0000E+00  0.2000E+02
  -8.990  0.0000E+00  0.2000E+02
  -8.980  0.0000E+00  0.2000E+02
  -8.970  0.0000E+00  0.2000E+02
  -8.960  0.0000E+00  0.2000E+02
  -8.950  0.0000E+00  0.2000E+02
  -8.940  0.0000E+00  0.2000E+02
  -8.930  0.0000E+00  0.2000E+02
  -8.920  0.0000E+00  0.2000E+02
  -8.910  0.0000E+00  0.2000E+02
  -8.900  0.0000E+00  0.2000E+02
  -8.890  0.0000E+00  0.2000E+02
  -8.880  0.0000E+00  0.2000E+02
  -8.870  0.0000E+00  0.2000E+02
  -8.860  0.0000E+00  0.2000E+02
  -8.850  0.0000E+00  0.2000E+02
  -8.840  0.0000E+00  0.2000E+02
  -8.830  0.0000E+00  0.2000E+02
  -8.820  0.0000E+00  0.2000E+02
  -8.810  0.0000E+00  0.2000E+02
  -8.800  0.0000E+00  0.2000E+02
  -8.790  0.0000E+00  0.2000E+02
  -8.780  0.0000E+00  0.2000E+02
  -8.770  0.0000E+00  0.2000E+02
  -8.760  0.0000E+00  0.2000E+02
  -8.750  0.0000E+00  0.2000E+02
  -8.740  0.0000E+00  0.2000E+02
  -8.730  0.0000E+00  0.2000E+02
  -8.720  0.0000E+00  0.2000E+02
  -8.710  0.0000E+00  0.2000E+02
  -8.700  0.0000E+00  0.2000E+02
  -8.690  0.0000E+00  0.2000E+02
  -8.680  0.0000E+00  0.2000E+02
  -8.670  0.0000E+00  0.2000E+02
  -8.660  0.0000E+00  0.2000E+02
  -8.650  0.0000E+00  0.2000E+02
  -8.640  0.0000E+00  0.2000E+02
  -8.630  0.0000E+00  0.2000E+02
  -8.620  0.0000E+00  0.2000E+02
  -8.610  0.0000E+00  0.2000E+02
  -8.600  0.0000E+00  0.2000E+02
  -8.590  0.0000E+00  0.2000E+02
  -8.580  0.0000E+00  0.2000E+02
  -8.570  0.0000E+00  0.2000E+02
  -8.560  0.0000E+00  0.2000E+02
  -8.550  0.0000E+00  0.2000E+02
  -8.540  0.0000E+00  0.2000E+02
  -8.530  0.0000E+00  0.2000E+02
  -8.520  0.0000E+00  0.2000E+02
  -8.510  0.0000E+00  0.2000E+02
  -8.500  0.0000E+00  0.2000E+02
  -8.490  0.0000E+00  0.2000E+02
  -8.480  0.0000E+00  0.2000E+02
  -8.470  0.0000E+00  0.2000E+02
  -8.460  0.0000E+00  0.2000E+02
  -8.450  0.0000E+00  0.2000E+02
  -8.440  0.0000E+00  0.2000E+02
  -8.430  0.0000E+00  0.2000E+02
  -8.420  0.0000E+00  0.2000E+02
  -8.410  0.0000E+00  0.2000E+02
  -8.400  0.0000E+00  0.2000E+02
  -8.390  0.0000E+00  0.2000E+02
  -8.380  0.0000E+00  0.2000E+02
  -8.370  0.0000E+00  0.2000E+02
  -8.360  0.0000E+00  0.2000E+02
  -8.350  0.0000E+00  0.2000E+02
  -8.340  0.0000E+00  0.2000E+02
  -8.330  0.0000E+00  0.2000E+02
  -8.320  0.0000E+00  0.2000E+02
  -8.310  0.0000E+00  0.2000E+02
  -8.300  0.0000E+00  0.2000E+02
  -8.290  0.0000E+00  0.2000E+02
  -8.280  0.0000E+00  0.2000E+02
  -8.270  0.0000E+00  0.2000E+02
  -8.260  0.0000E+00  0.2000E+02
  -8.250  0.0000E+00  0.2000E+02
  -8.240  0.0000E+00  0.2000E+02
  -8.230  0.0000E+00  0.2000E+02
  -8.220  0.0000E+00  0.2000E+02
  -8.210  0.0000E+00  0.2000E+02
  -8.200  0.0000E+00  0.2000E+02
  -8.190  0.0000E+00  0.2000E+02
  -8.180  0.0000E+00  0.2000E+02
  -8.170  0.0000E+00  0.2000E+02
  -8.160  0.0000E+00  0.2000E+02
  -8.150  0.0000E+00  0.2000E+02
  -8.140  0.0000E+00  0.2000E+02
  -8.130  0.0000E+00  0.2000E+02
  -8.120  0.0000E+00  0.2000E+02
  -8.110  0.0000E+00  0.2000E+02
  -8.100  0.0000E+00  0.2000E+02
  -8.090  0.0000E+00  0.2000E+02
  -8.080  0.0000E+00  0.2000E+02
  -8.070  0.0000E+00  0.2000E+02
  -8.060  0.0000E+00  0.2000E+02
  -8.050  0.0000E+00  0.2000E+02
  -8.040  0.0000E+00  0.2000E+02
  -8.030  0.0000E+00  0.2000E+02
  -8.020  0.0000E+00  0.2000E+02
  -8.010  0.0000E+00  0.2000E+02
  -8.000  0.0000E+00  0.2000E+02
  -7.990  0.0000E+00  0.2000E+02
  -7.980  0.0000E+00  0.2000E+02
  -7.970  0.0000E+00  0.2000E+02
  -7.960  0.0000E+00  0.2000E+02
  -7.950  0.0000E+00  0.2000E+02
  -7.940  0.0000E+00  0.2000E+02
  -7.930  0.0000E+00  0.2000E+02
  -7.920  0.0000E+00  0.2000E+02
  -7.910  0.0000E+00  0.2000E+02
  -7.900  0.0000E+00  0.2000E+02
  -7.890  0.0000E+00  0.2000E+02
  -7.880  0.0000E+00  0.2000E+02
  -7.870  0.0000E+00  0.2000E+02
  -7.860  0.0000E+00  0.2000E+02
  -7.850  0.0000E+00  0.2000E+02
  -7.840  0.0000E+00  0.2000E+02
  -7.830  0.0000E+00  0.2000E+02
  -7.820  0.0000E+00  0.2000E+02
