#  E (eV)   dos(E)     Int dos(E) EFermi =    7.984 eV
 -15.482  0.4940E-03  0.4940E-05
 -15.472  0.5535E-03  0.1048E-04
 -15.462  0.6199E-03  0.1667E-04
 -15.452  0.6937E-03  0.2361E-04
 -15.442  0.7758E-03  0.3137E-04
 -15.432  0.8671E-03  0.4004E-04
 -15.422  0.9685E-03  0.4972E-04
 -15.412  0.1081E-02  0.6053E-04
 -15.402  0.1206E-02  0.7259E-04
 -15.392  0.1344E-02  0.8603E-04
 -15.382  0.1497E-02  0.1010E-03
 -15.372  0.1667E-02  0.1177E-03
 -15.362  0.1855E-02  0.1362E-03
 -15.352  0.2062E-02  0.1569E-03
 -15.342  0.2292E-02  0.1798E-03
 -15.332  0.2545E-02  0.2052E-03
 -15.322  0.2824E-02  0.2335E-03
 -15.312  0.3132E-02  0.2648E-03
 -15.302  0.3471E-02  0.2995E-03
 -15.292  0.3844E-02  0.3379E-03
 -15.282  0.4255E-02  0.3805E-03
 -15.272  0.4707E-02  0.4275E-03
 -15.262  0.5203E-02  0.4796E-03
 -15.252  0.5748E-02  0.5371E-03
 -15.242  0.6346E-02  0.6005E-03
 -15.232  0.7001E-02  0.6705E-03
 -15.222  0.7720E-02  0.7477E-03
 -15.212  0.8506E-02  0.8328E-03
 -15.202  0.9367E-02  0.9265E-03
 -15.192  0.1031E-01  0.1030E-02
 -15.182  0.1134E-01  0.1143E-02
 -15.172  0.1246E-01  0.1268E-02
 -15.162  0.1369E-01  0.1404E-02
 -15.152  0.1502E-01  0.1555E-02
 -15.142  0.1648E-01  0.1719E-02
 -15.132  0.1807E-01  0.1900E-02
 -15.122  0.1979E-01  0.2098E-02
 -15.112  0.2167E-01  0.2315E-02
 -15.102  0.2371E-01  0.2552E-02
 -15.092  0.2593E-01  0.2811E-02
 -15.082  0.2833E-01  0.3094E-02
 -15.072  0.3094E-01  0.3404E-02
 -15.062  0.3377E-01  0.3742E-02
 -15.052  0.3684E-01  0.4110E-02
 -15.042  0.4015E-01  0.4512E-02
 -15.032  0.4374E-01  0.4949E-02
 -15.022  0.4762E-01  0.5425E-02
 -15.012  0.5180E-01  0.5943E-02
 -15.002  0.5633E-01  0.6506E-02
 -14.992  0.6120E-01  0.7118E-02
 -14.982  0.6646E-01  0.7783E-02
 -14.972  0.7212E-01  0.8504E-02
 -14.962  0.7822E-01  0.9286E-02
 -14.952  0.8478E-01  0.1013E-01
 -14.942  0.9183E-01  0.1105E-01
 -14.932  0.9940E-01  0.1205E-01
 -14.922  0.1075E+00  0.1312E-01
 -14.912  0.1163E+00  0.1428E-01
 -14.902  0.1256E+00  0.1554E-01
 -14.892  0.1356E+00  0.1690E-01
 -14.882  0.1464E+00  0.1836E-01
 -14.872  0.1578E+00  0.1994E-01
 -14.862  0.1701E+00  0.2164E-01
 -14.852  0.1832E+00  0.2347E-01
 -14.842  0.1972E+00  0.2544E-01
 -14.832  0.2122E+00  0.2757E-01
 -14.822  0.2281E+00  0.2985E-01
 -14.812  0.2451E+00  0.3230E-01
 -14.802  0.2632E+00  0.3493E-01
 -14.792  0.2824E+00  0.3775E-01
 -14.782  0.3028E+00  0.4078E-01
 -14.772  0.3246E+00  0.4403E-01
 -14.762  0.3476E+00  0.4750E-01
 -14.752  0.3721E+00  0.5123E-01
 -14.742  0.3981E+00  0.5521E-01
 -14.732  0.4256E+00  0.5946E-01
 -14.722  0.4548E+00  0.6401E-01
 -14.712  0.4856E+00  0.6887E-01
 -14.702  0.5182E+00  0.7405E-01
 -14.692  0.5527E+00  0.7957E-01
 -14.682  0.5890E+00  0.8546E-01
 -14.672  0.6275E+00  0.9174E-01
 -14.662  0.6680E+00  0.9842E-01
 -14.652  0.7106E+00  0.1055E+00
 -14.642  0.7556E+00  0.1131E+00
 -14.632  0.8029E+00  0.1211E+00
 -14.622  0.8526E+00  0.1296E+00
 -14.612  0.9049E+00  0.1387E+00
 -14.602  0.9598E+00  0.1483E+00
 -14.592  0.1017E+01  0.1585E+00
 -14.582  0.1078E+01  0.1692E+00
 -14.572  0.1141E+01  0.1806E+00
 -14.562  0.1208E+01  0.1927E+00
 -14.552  0.1277E+01  0.2055E+00
 -14.542  0.1350E+01  0.2190E+00
 -14.532  0.1425E+01  0.2332E+00
 -14.522  0.1505E+01  0.2483E+00
 -14.512  0.1587E+01  0.2642E+00
 -14.502  0.1674E+01  0.2809E+00
 -14.492  0.1763E+01  0.2985E+00
 -14.482  0.1857E+01  0.3171E+00
 -14.472  0.1954E+01  0.3366E+00
 -14.462  0.2056E+01  0.3572E+00
 -14.452  0.2161E+01  0.3788E+00
 -14.442  0.2270E+01  0.4015E+00
 -14.432  0.2383E+01  0.4253E+00
 -14.422  0.2501E+01  0.4504E+00
 -14.412  0.2623E+01  0.4766E+00
 -14.402  0.2749E+01  0.5041E+00
 -14.392  0.2879E+01  0.5329E+00
 -14.382  0.3014E+01  0.5630E+00
 -14.372  0.3154E+01  0.5945E+00
 -14.362  0.3297E+01  0.6275E+00
 -14.352  0.3446E+01  0.6620E+00
 -14.342  0.3599E+01  0.6980E+00
 -14.332  0.3757E+01  0.7355E+00
 -14.322  0.3919E+01  0.7747E+00
 -14.312  0.4086E+01  0.8156E+00
 -14.302  0.4257E+01  0.8581E+00
 -14.292  0.4433E+01  0.9025E+00
 -14.282  0.4614E+01  0.9486E+00
 -14.272  0.4799E+01  0.9966E+00
 -14.262  0.4989E+01  0.1046E+01
 -14.252  0.5183E+01  0.1098E+01
 -14.242  0.5382E+01  0.1152E+01
 -14.232  0.5586E+01  0.1208E+01
 -14.222  0.5793E+01  0.1266E+01
 -14.212  0.6005E+01  0.1326E+01
 -14.202  0.6221E+01  0.1388E+01
 -14.192  0.6441E+01  0.1453E+01
 -14.182  0.6666E+01  0.1519E+01
 -14.172  0.6894E+01  0.1588E+01
 -14.162  0.7126E+01  0.1659E+01
 -14.152  0.7361E+01  0.1733E+01
 -14.142  0.7600E+01  0.1809E+01
 -14.132  0.7842E+01  0.1887E+01
 -14.122  0.8087E+01  0.1968E+01
 -14.112  0.8336E+01  0.2052E+01
 -14.102  0.8587E+01  0.2138E+01
 -14.092  0.8840E+01  0.2226E+01
 -14.082  0.9096E+01  0.2317E+01
 -14.072  0.9354E+01  0.2410E+01
 -14.062  0.9614E+01  0.2507E+01
 -14.052  0.9876E+01  0.2605E+01
 -14.042  0.1014E+02  0.2707E+01
 -14.032  0.1040E+02  0.2811E+01
 -14.022  0.1067E+02  0.2918E+01
 -14.012  0.1093E+02  0.3027E+01
 -14.002  0.1120E+02  0.3139E+01
 -13.992  0.1147E+02  0.3254E+01
 -13.982  0.1173E+02  0.3371E+01
 -13.972  0.1200E+02  0.3491E+01
 -13.962  0.1226E+02  0.3614E+01
 -13.952  0.1253E+02  0.3739E+01
 -13.942  0.1279E+02  0.3867E+01
 -13.932  0.1305E+02  0.3997E+01
 -13.922  0.1331E+02  0.4130E+01
 -13.912  0.1357E+02  0.4266E+01
 -13.902  0.1382E+02  0.4404E+01
 -13.892  0.1407E+02  0.4545E+01
 -13.882  0.1432E+02  0.4688E+01
 -13.872  0.1456E+02  0.4834E+01
 -13.862  0.1480E+02  0.4982E+01
 -13.852  0.1504E+02  0.5132E+01
 -13.842  0.1527E+02  0.5285E+01
 -13.832  0.1549E+02  0.5440E+01
 -13.822  0.1571E+02  0.5597E+01
 -13.812  0.1593E+02  0.5756E+01
 -13.802  0.1614E+02  0.5918E+01
 -13.792  0.1634E+02  0.6081E+01
 -13.782  0.1654E+02  0.6246E+01
 -13.772  0.1673E+02  0.6414E+01
 -13.762  0.1691E+02  0.6583E+01
 -13.752  0.1708E+02  0.6754E+01
 -13.742  0.1725E+02  0.6926E+01
 -13.732  0.1741E+02  0.7100E+01
 -13.722  0.1756E+02  0.7276E+01
 -13.712  0.1771E+02  0.7453E+01
 -13.702  0.1784E+02  0.7631E+01
 -13.692  0.1797E+02  0.7811E+01
 -13.682  0.1808E+02  0.7992E+01
 -13.672  0.1819E+02  0.8174E+01
 -13.662  0.1829E+02  0.8357E+01
 -13.652  0.1838E+02  0.8541E+01
 -13.642  0.1846E+02  0.8725E+01
 -13.632  0.1853E+02  0.8910E+01
 -13.622  0.1859E+02  0.9096E+01
 -13.612  0.1864E+02  0.9283E+01
 -13.602  0.1868E+02  0.9470E+01
 -13.592  0.1871E+02  0.9657E+01
 -13.582  0.1873E+02  0.9844E+01
 -13.572  0.1874E+02  0.1003E+02
 -13.562  0.1874E+02  0.1022E+02
 -13.552  0.1873E+02  0.1041E+02
 -13.542  0.1871E+02  0.1059E+02
 -13.532  0.1868E+02  0.1078E+02
 -13.522  0.1863E+02  0.1097E+02
 -13.512  0.1858E+02  0.1115E+02
 -13.502  0.1852E+02  0.1134E+02
 -13.492  0.1845E+02  0.1152E+02
 -13.482  0.1837E+02  0.1171E+02
 -13.472  0.1828E+02  0.1189E+02
 -13.462  0.1818E+02  0.1207E+02
 -13.452  0.1807E+02  0.1225E+02
 -13.442  0.1795E+02  0.1243E+02
 -13.432  0.1782E+02  0.1261E+02
 -13.422  0.1769E+02  0.1279E+02
 -13.412  0.1754E+02  0.1296E+02
 -13.402  0.1739E+02  0.1313E+02
 -13.392  0.1723E+02  0.1331E+02
 -13.382  0.1706E+02  0.1348E+02
 -13.372  0.1688E+02  0.1365E+02
 -13.362  0.1670E+02  0.1381E+02
 -13.352  0.1651E+02  0.1398E+02
 -13.342  0.1631E+02  0.1414E+02
 -13.332  0.1610E+02  0.1430E+02
 -13.322  0.1589E+02  0.1446E+02
 -13.312  0.1568E+02  0.1462E+02
 -13.302  0.1545E+02  0.1477E+02
 -13.292  0.1523E+02  0.1493E+02
 -13.282  0.1499E+02  0.1507E+02
 -13.272  0.1476E+02  0.1522E+02
 -13.262  0.1452E+02  0.1537E+02
 -13.252  0.1427E+02  0.1551E+02
 -13.242  0.1402E+02  0.1565E+02
 -13.232  0.1377E+02  0.1579E+02
 -13.222  0.1351E+02  0.1592E+02
 -13.212  0.1326E+02  0.1606E+02
 -13.202  0.1299E+02  0.1619E+02
 -13.192  0.1273E+02  0.1631E+02
 -13.182  0.1247E+02  0.1644E+02
 -13.172  0.1220E+02  0.1656E+02
 -13.162  0.1194E+02  0.1668E+02
 -13.152  0.1167E+02  0.1680E+02
 -13.142  0.1140E+02  0.1691E+02
 -13.132  0.1113E+02  0.1702E+02
 -13.122  0.1086E+02  0.1713E+02
 -13.112  0.1060E+02  0.1724E+02
 -13.102  0.1033E+02  0.1734E+02
 -13.092  0.1007E+02  0.1744E+02
 -13.082  0.9801E+01  0.1754E+02
 -13.072  0.9538E+01  0.1763E+02
 -13.062  0.9277E+01  0.1773E+02
 -13.052  0.9018E+01  0.1782E+02
 -13.042  0.8761E+01  0.1790E+02
 -13.032  0.8506E+01  0.1799E+02
 -13.022  0.8255E+01  0.1807E+02
 -13.012  0.8006E+01  0.1815E+02
 -13.002  0.7760E+01  0.1823E+02
 -12.992  0.7517E+01  0.1830E+02
 -12.982  0.7278E+01  0.1838E+02
 -12.972  0.7042E+01  0.1845E+02
 -12.962  0.6810E+01  0.1852E+02
 -12.952  0.6582E+01  0.1858E+02
 -12.942  0.6358E+01  0.1864E+02
 -12.932  0.6138E+01  0.1871E+02
 -12.922  0.5922E+01  0.1877E+02
 -12.912  0.5710E+01  0.1882E+02
 -12.902  0.5503E+01  0.1888E+02
 -12.892  0.5300E+01  0.1893E+02
 -12.882  0.5102E+01  0.1898E+02
 -12.872  0.4908E+01  0.1903E+02
 -12.862  0.4719E+01  0.1908E+02
 -12.852  0.4534E+01  0.1912E+02
 -12.842  0.4354E+01  0.1917E+02
 -12.832  0.4179E+01  0.1921E+02
 -12.822  0.4008E+01  0.1925E+02
 -12.812  0.3842E+01  0.1929E+02
 -12.802  0.3681E+01  0.1932E+02
 -12.792  0.3525E+01  0.1936E+02
 -12.782  0.3373E+01  0.1939E+02
 -12.772  0.3226E+01  0.1943E+02
 -12.762  0.3083E+01  0.1946E+02
 -12.752  0.2945E+01  0.1949E+02
 -12.742  0.2811E+01  0.1951E+02
 -12.732  0.2682E+01  0.1954E+02
 -12.722  0.2558E+01  0.1957E+02
 -12.712  0.2437E+01  0.1959E+02
 -12.702  0.2321E+01  0.1961E+02
 -12.692  0.2209E+01  0.1964E+02
 -12.682  0.2101E+01  0.1966E+02
 -12.672  0.1998E+01  0.1968E+02
 -12.662  0.1898E+01  0.1970E+02
 -12.652  0.1802E+01  0.1971E+02
 -12.642  0.1710E+01  0.1973E+02
 -12.632  0.1622E+01  0.1975E+02
 -12.622  0.1537E+01  0.1976E+02
 -12.612  0.1456E+01  0.1978E+02
 -12.602  0.1378E+01  0.1979E+02
 -12.592  0.1304E+01  0.1980E+02
 -12.582  0.1233E+01  0.1982E+02
 -12.572  0.1165E+01  0.1983E+02
 -12.562  0.1100E+01  0.1984E+02
 -12.552  0.1038E+01  0.1985E+02
 -12.542  0.9794E+00  0.1986E+02
 -12.532  0.9232E+00  0.1987E+02
 -12.522  0.8697E+00  0.1988E+02
 -12.512  0.8188E+00  0.1988E+02
 -12.502  0.7704E+00  0.1989E+02
 -12.492  0.7244E+00  0.1990E+02
 -12.482  0.6808E+00  0.1991E+02
 -12.472  0.6393E+00  0.1991E+02
 -12.462  0.6001E+00  0.1992E+02
 -12.452  0.5629E+00  0.1992E+02
 -12.442  0.5277E+00  0.1993E+02
 -12.432  0.4943E+00  0.1993E+02
 -12.422  0.4628E+00  0.1994E+02
 -12.412  0.4331E+00  0.1994E+02
 -12.402  0.4050E+00  0.1995E+02
 -12.392  0.3785E+00  0.1995E+02
 -12.382  0.3535E+00  0.1996E+02
 -12.372  0.3299E+00  0.1996E+02
 -12.362  0.3077E+00  0.1996E+02
 -12.352  0.2869E+00  0.1996E+02
 -12.342  0.2673E+00  0.1997E+02
 -12.332  0.2488E+00  0.1997E+02
 -12.322  0.2315E+00  0.1997E+02
 -12.312  0.2153E+00  0.1997E+02
 -12.302  0.2001E+00  0.1998E+02
 -12.292  0.1858E+00  0.1998E+02
 -12.282  0.1725E+00  0.1998E+02
 -12.272  0.1600E+00  0.1998E+02
 -12.262  0.1483E+00  0.1998E+02
 -12.252  0.1374E+00  0.1998E+02
 -12.242  0.1272E+00  0.1999E+02
 -12.232  0.1177E+00  0.1999E+02
 -12.222  0.1088E+00  0.1999E+02
 -12.212  0.1006E+00  0.1999E+02
 -12.202  0.9287E-01  0.1999E+02
 -12.192  0.8571E-01  0.1999E+02
 -12.182  0.7905E-01  0.1999E+02
 -12.172  0.7287E-01  0.1999E+02
 -12.162  0.6712E-01  0.1999E+02
 -12.152  0.6179E-01  0.1999E+02
 -12.142  0.5685E-01  0.1999E+02
 -12.132  0.5227E-01  0.1999E+02
 -12.122  0.4803E-01  0.1999E+02
 -12.112  0.4410E-01  0.2000E+02
 -12.102  0.4047E-01  0.2000E+02
 -12.092  0.3711E-01  0.2000E+02
 -12.082  0.3401E-01  0.2000E+02
 -12.072  0.3116E-01  0.2000E+02
 -12.062  0.2852E-01  0.2000E+02
 -12.052  0.2609E-01  0.2000E+02
 -12.042  0.2385E-01  0.2000E+02
 -12.032  0.2179E-01  0.2000E+02
 -12.022  0.1989E-01  0.2000E+02
 -12.012  0.1815E-01  0.2000E+02
 -12.002  0.1655E-01  0.2000E+02
 -11.992  0.1508E-01  0.2000E+02
 -11.982  0.1373E-01  0.2000E+02
 -11.972  0.1250E-01  0.2000E+02
 -11.962  0.1137E-01  0.2000E+02
 -11.952  0.1033E-01  0.2000E+02
 -11.942  0.9386E-02  0.2000E+02
 -11.932  0.8521E-02  0.2000E+02
 -11.922  0.7730E-02  0.2000E+02
 -11.912  0.7008E-02  0.2000E+02
 -11.902  0.6349E-02  0.2000E+02
 -11.892  0.5749E-02  0.2000E+02
 -11.882  0.5202E-02  0.2000E+02
 -11.872  0.4704E-02  0.2000E+02
 -11.862  0.4251E-02  0.2000E+02
 -11.852  0.3839E-02  0.2000E+02
 -11.842  0.3465E-02  0.2000E+02
 -11.832  0.3125E-02  0.2000E+02
 -11.822  0.2817E-02  0.2000E+02
 -11.812  0.2537E-02  0.2000E+02
 -11.802  0.2284E-02  0.2000E+02
 -11.792  0.2055E-02  0.2000E+02
 -11.782  0.1847E-02  0.2000E+02
 -11.772  0.1660E-02  0.2000E+02
 -11.762  0.1490E-02  0.2000E+02
 -11.752  0.1337E-02  0.2000E+02
 -11.742  0.1199E-02  0.2000E+02
 -11.732  0.1075E-02  0.2000E+02
 -11.722  0.9624E-03  0.2000E+02
 -11.712  0.8613E-03  0.2000E+02
 -11.702  0.7704E-03  0.2000E+02
 -11.692  0.6886E-03  0.2000E+02
 -11.682  0.6150E-03  0.2000E+02
 -11.672  0.5490E-03  0.2000E+02
 -11.662  0.4898E-03  0.2000E+02
 -11.652  0.4366E-03  0.2000E+02
 -11.642  0.3890E-03  0.2000E+02
 -11.632  0.3463E-03  0.2000E+02
 -11.622  0.3082E-03  0.2000E+02
 -11.612  0.2740E-03  0.2000E+02
 -11.602  0.2435E-03  0.2000E+02
 -11.592  0.2162E-03  0.2000E+02
 -11.582  0.1919E-03  0.2000E+02
 -11.572  0.1702E-03  0.2000E+02
 -11.562  0.1508E-03  0.2000E+02
 -11.552  0.1336E-03  0.2000E+02
 -11.542  0.1182E-03  0.2000E+02
 -11.532  0.1046E-03  0.2000E+02
 -11.522  0.9245E-04  0.2000E+02
 -11.512  0.8167E-04  0.2000E+02
 -11.502  0.7210E-04  0.2000E+02
 -11.492  0.6361E-04  0.2000E+02
 -11.482  0.5608E-04  0.2000E+02
 -11.472  0.4941E-04  0.2000E+02
 -11.462  0.4351E-04  0.2000E+02
 -11.452  0.3829E-04  0.2000E+02
 -11.442  0.3367E-04  0.2000E+02
 -11.432  0.2959E-04  0.2000E+02
 -11.422  0.2598E-04  0.2000E+02
 -11.412  0.2280E-04  0.2000E+02
 -11.402  0.2000E-04  0.2000E+02
 -11.392  0.1753E-04  0.2000E+02
 -11.382  0.1535E-04  0.2000E+02
 -11.372  0.1344E-04  0.2000E+02
 -11.362  0.1176E-04  0.2000E+02
 -11.352  0.1028E-04  0.2000E+02
 -11.342  0.8978E-05  0.2000E+02
 -11.332  0.7839E-05  0.2000E+02
 -11.322  0.6839E-05  0.2000E+02
 -11.312  0.5963E-05  0.2000E+02
 -11.302  0.5195E-05  0.2000E+02
 -11.292  0.4524E-05  0.2000E+02
 -11.282  0.3937E-05  0.2000E+02
 -11.272  0.3423E-05  0.2000E+02
 -11.262  0.2975E-05  0.2000E+02
 -11.252  0.2584E-05  0.2000E+02
 -11.242  0.2242E-05  0.2000E+02
 -11.232  0.1945E-05  0.2000E+02
 -11.222  0.1686E-05  0.2000E+02
 -11.212  0.1460E-05  0.2000E+02
 -11.202  0.1264E-05  0.2000E+02
 -11.192  0.1093E-05  0.2000E+02
 -11.182  0.9450E-06  0.2000E+02
 -11.172  0.8164E-06  0.2000E+02
 -11.162  0.7048E-06  0.2000E+02
 -11.152  0.6081E-06  0.2000E+02
 -11.142  0.5243E-06  0.2000E+02
 -11.132  0.4517E-06  0.2000E+02
 -11.122  0.3889E-06  0.2000E+02
 -11.112  0.3347E-06  0.2000E+02
 -11.102  0.2878E-06  0.2000E+02
 -11.092  0.2473E-06  0.2000E+02
 -11.082  0.2124E-06  0.2000E+02
 -11.072  0.1823E-06  0.2000E+02
 -11.062  0.1563E-06  0.2000E+02
 -11.052  0.1340E-06  0.2000E+02
 -11.042  0.1147E-06  0.2000E+02
 -11.032  0.9821E-07  0.2000E+02
 -11.022  0.8401E-07  0.2000E+02
 -11.012  0.7181E-07  0.2000E+02
 -11.002  0.6134E-07  0.2000E+02
 -10.992  0.5237E-07  0.2000E+02
 -10.982  0.4468E-07  0.2000E+02
 -10.972  0.3809E-07  0.2000E+02
 -10.962  0.3245E-07  0.2000E+02
 -10.952  0.2763E-07  0.2000E+02
 -10.942  0.2351E-07  0.2000E+02
 -10.932  0.1999E-07  0.2000E+02
 -10.922  0.1698E-07  0.2000E+02
 -10.912  0.1442E-07  0.2000E+02
 -10.902  0.1224E-07  0.2000E+02
 -10.892  0.1038E-07  0.2000E+02
 -10.882  0.8796E-08  0.2000E+02
 -10.872  0.7449E-08  0.2000E+02
 -10.862  0.6305E-08  0.2000E+02
 -10.852  0.5332E-08  0.2000E+02
 -10.842  0.4507E-08  0.2000E+02
 -10.832  0.3807E-08  0.2000E+02
 -10.822  0.3213E-08  0.2000E+02
 -10.812  0.2711E-08  0.2000E+02
 -10.802  0.2285E-08  0.2000E+02
 -10.792  0.1925E-08  0.2000E+02
 -10.782  0.1621E-08  0.2000E+02
 -10.772  0.1363E-08  0.2000E+02
 -10.762  0.1146E-08  0.2000E+02
 -10.752  0.9631E-09  0.2000E+02
 -10.742  0.8086E-09  0.2000E+02
 -10.732  0.6785E-09  0.2000E+02
 -10.722  0.5689E-09  0.2000E+02
 -10.712  0.4767E-09  0.2000E+02
 -10.702  0.3992E-09  0.2000E+02
 -10.692  0.3341E-09  0.2000E+02
 -10.682  0.2794E-09  0.2000E+02
 -10.672  0.2335E-09  0.2000E+02
 -10.662  0.1950E-09  0.2000E+02
 -10.652  0.1628E-09  0.2000E+02
 -10.642  0.1358E-09  0.2000E+02
 -10.632  0.1131E-09  0.2000E+02
 -10.622  0.9425E-10  0.2000E+02
 -10.612  0.7845E-10  0.2000E+02
 -10.602  0.6526E-10  0.2000E+02
 -10.592  0.5425E-10  0.2000E+02
 -10.582  0.4507E-10  0.2000E+02
 -10.572  0.3741E-10  0.2000E+02
 -10.562  0.3104E-10  0.2000E+02
 -10.552  0.2573E-10  0.2000E+02
 -10.542  0.2132E-10  0.2000E+02
 -10.532  0.1765E-10  0.2000E+02
 -10.522  0.1461E-10  0.2000E+02
 -10.512  0.1208E-10  0.2000E+02
 -10.502  0.9981E-11  0.2000E+02
 -10.492  0.8242E-11  0.2000E+02
 -10.482  0.6801E-11  0.2000E+02
 -10.472  0.5609E-11  0.2000E+02
 -10.462  0.4622E-11  0.2000E+02
 -10.452  0.3807E-11  0.2000E+02
 -10.442  0.3133E-11  0.2000E+02
 -10.432  0.2577E-11  0.2000E+02
 -10.422  0.2118E-11  0.2000E+02
 -10.412  0.1740E-11  0.2000E+02
 -10.402  0.1428E-11  0.2000E+02
 -10.392  0.1171E-11  0.2000E+02
 -10.382  0.9602E-12  0.2000E+02
 -10.372  0.7866E-12  0.2000E+02
 -10.362  0.6439E-12  0.2000E+02
 -10.352  0.5268E-12  0.2000E+02
 -10.342  0.4307E-12  0.2000E+02
 -10.332  0.3518E-12  0.2000E+02
 -10.322  0.2873E-12  0.2000E+02
 -10.312  0.2344E-12  0.2000E+02
 -10.302  0.1911E-12  0.2000E+02
 -10.292  0.1557E-12  0.2000E+02
 -10.282  0.1268E-12  0.2000E+02
 -10.272  0.1032E-12  0.2000E+02
 -10.262  0.8391E-13  0.2000E+02
 -10.252  0.6819E-13  0.2000E+02
 -10.242  0.5537E-13  0.2000E+02
 -10.232  0.4494E-13  0.2000E+02
 -10.222  0.3645E-13  0.2000E+02
 -10.212  0.2954E-13  0.2000E+02
 -10.202  0.2392E-13  0.2000E+02
 -10.192  0.1936E-13  0.2000E+02
 -10.182  0.1566E-13  0.2000E+02
 -10.172  0.1266E-13  0.2000E+02
 -10.162  0.1023E-13  0.2000E+02
 -10.152  0.8255E-14  0.2000E+02
 -10.142  0.6659E-14  0.2000E+02
 -10.132  0.5369E-14  0.2000E+02
 -10.122  0.4325E-14  0.2000E+02
 -10.112  0.3482E-14  0.2000E+02
 -10.102  0.2801E-14  0.2000E+02
 -10.092  0.2252E-14  0.2000E+02
 -10.082  0.1810E-14  0.2000E+02
 -10.072  0.1453E-14  0.2000E+02
 -10.062  0.1166E-14  0.2000E+02
 -10.052  0.9348E-15  0.2000E+02
 -10.042  0.7491E-15  0.2000E+02
 -10.032  0.5999E-15  0.2000E+02
 -10.022  0.4800E-15  0.2000E+02
 -10.012  0.3839E-15  0.2000E+02
 -10.002  0.3068E-15  0.2000E+02
  -9.992  0.2450E-15  0.2000E+02
  -9.982  0.1955E-15  0.2000E+02
  -9.972  0.1560E-15  0.2000E+02
  -9.962  0.1243E-15  0.2000E+02
  -9.952  0.9901E-16  0.2000E+02
  -9.942  0.7881E-16  0.2000E+02
  -9.932  0.6268E-16  0.2000E+02
  -9.922  0.4983E-16  0.2000E+02
  -9.912  0.3958E-16  0.2000E+02
  -9.902  0.3142E-16  0.2000E+02
  -9.892  0.2493E-16  0.2000E+02
  -9.882  0.1976E-16  0.2000E+02
  -9.872  0.1566E-16  0.2000E+02
  -9.862  0.1239E-16  0.2000E+02
  -9.852  0.9806E-17  0.2000E+02
  -9.842  0.7753E-17  0.2000E+02
  -9.832  0.6126E-17  0.2000E+02
  -9.822  0.4837E-17  0.2000E+02
  -9.812  0.3817E-17  0.2000E+02
  -9.802  0.3010E-17  0.2000E+02
  -9.792  0.2372E-17  0.2000E+02
  -9.782  0.1868E-17  0.2000E+02
  -9.772  0.1470E-17  0.2000E+02
  -9.762  0.1156E-17  0.2000E+02
  -9.752  0.9084E-18  0.2000E+02
  -9.742  0.7134E-18  0.2000E+02
  -9.732  0.5599E-18  0.2000E+02
  -9.722  0.4391E-18  0.2000E+02
  -9.712  0.3442E-18  0.2000E+02
  -9.702  0.2696E-18  0.2000E+02
  -9.692  0.2110E-18  0.2000E+02
  -9.682  0.1651E-18  0.2000E+02
  -9.672  0.1290E-18  0.2000E+02
  -9.662  0.1008E-18  0.2000E+02
  -9.652  0.7868E-19  0.2000E+02
  -9.642  0.6138E-19  0.2000E+02
  -9.632  0.4785E-19  0.2000E+02
  -9.622  0.3728E-19  0.2000E+02
  -9.612  0.2903E-19  0.2000E+02
  -9.602  0.2258E-19  0.2000E+02
  -9.592  0.1756E-19  0.2000E+02
  -9.582  0.1364E-19  0.2000E+02
  -9.572  0.1059E-19  0.2000E+02
  -9.562  0.8219E-20  0.2000E+02
  -9.552  0.6373E-20  0.2000E+02
  -9.542  0.4939E-20  0.2000E+02
  -9.532  0.3825E-20  0.2000E+02
  -9.522  0.2960E-20  0.2000E+02
  -9.512  0.2289E-20  0.2000E+02
  -9.502  0.1769E-20  0.2000E+02
  -9.492  0.1366E-20  0.2000E+02
  -9.482  0.1054E-20  0.2000E+02
  -9.472  0.8132E-21  0.2000E+02
  -9.462  0.6268E-21  0.2000E+02
  -9.452  0.4828E-21  0.2000E+02
