#  E (eV)   dos(E)     Int dos(E) EFermi =    8.628 eV
 -18.406  0.1074E-04  0.1074E-06
 -18.396  0.1210E-04  0.2284E-06
 -18.386  0.1362E-04  0.3645E-06
 -18.376  0.1532E-04  0.5177E-06
 -18.366  0.1722E-04  0.6899E-06
 -18.356  0.1934E-04  0.8833E-06
 -18.346  0.2172E-04  0.1101E-05
 -18.336  0.2437E-04  0.1344E-05
 -18.326  0.2733E-04  0.1617E-05
 -18.316  0.3062E-04  0.1924E-05
 -18.306  0.3430E-04  0.2267E-05
 -18.296  0.3839E-04  0.2651E-05
 -18.286  0.4294E-04  0.3080E-05
 -18.276  0.4800E-04  0.3560E-05
 -18.266  0.5363E-04  0.4096E-05
 -18.256  0.5988E-04  0.4695E-05
 -18.246  0.6681E-04  0.5363E-05
 -18.236  0.7451E-04  0.6108E-05
 -18.226  0.8303E-04  0.6939E-05
 -18.216  0.9248E-04  0.7863E-05
 -18.206  0.1029E-03  0.8893E-05
 -18.196  0.1145E-03  0.1004E-04
 -18.186  0.1273E-03  0.1131E-04
 -18.176  0.1414E-03  0.1273E-04
 -18.166  0.1570E-03  0.1430E-04
 -18.156  0.1743E-03  0.1604E-04
 -18.146  0.1933E-03  0.1797E-04
 -18.136  0.2142E-03  0.2011E-04
 -18.126  0.2373E-03  0.2249E-04
 -18.116  0.2626E-03  0.2511E-04
 -18.106  0.2906E-03  0.2802E-04
 -18.096  0.3212E-03  0.3123E-04
 -18.086  0.3550E-03  0.3478E-04
 -18.076  0.3920E-03  0.3870E-04
 -18.066  0.4326E-03  0.4303E-04
 -18.056  0.4771E-03  0.4780E-04
 -18.046  0.5259E-03  0.5306E-04
 -18.036  0.5794E-03  0.5885E-04
 -18.026  0.6379E-03  0.6523E-04
 -18.016  0.7019E-03  0.7225E-04
 -18.006  0.7718E-03  0.7997E-04
 -17.996  0.8482E-03  0.8845E-04
 -17.986  0.9316E-03  0.9776E-04
 -17.976  0.1023E-02  0.1080E-03
 -17.966  0.1122E-02  0.1192E-03
 -17.956  0.1230E-02  0.1315E-03
 -17.946  0.1348E-02  0.1450E-03
 -17.936  0.1476E-02  0.1597E-03
 -17.926  0.1615E-02  0.1759E-03
 -17.916  0.1766E-02  0.1936E-03
 -17.906  0.1931E-02  0.2129E-03
 -17.896  0.2109E-02  0.2340E-03
 -17.886  0.2303E-02  0.2570E-03
 -17.876  0.2513E-02  0.2821E-03
 -17.866  0.2740E-02  0.3095E-03
 -17.856  0.2987E-02  0.3394E-03
 -17.846  0.3253E-02  0.3719E-03
 -17.836  0.3541E-02  0.4073E-03
 -17.826  0.3853E-02  0.4459E-03
 -17.816  0.4189E-02  0.4878E-03
 -17.806  0.4552E-02  0.5333E-03
 -17.796  0.4944E-02  0.5827E-03
 -17.786  0.5366E-02  0.6364E-03
 -17.776  0.5821E-02  0.6946E-03
 -17.766  0.6311E-02  0.7577E-03
 -17.756  0.6839E-02  0.8261E-03
 -17.746  0.7405E-02  0.9002E-03
 -17.736  0.8015E-02  0.9803E-03
 -17.726  0.8669E-02  0.1067E-02
 -17.716  0.9371E-02  0.1161E-02
 -17.706  0.1012E-01  0.1262E-02
 -17.696  0.1093E-01  0.1371E-02
 -17.686  0.1180E-01  0.1489E-02
 -17.676  0.1272E-01  0.1616E-02
 -17.666  0.1372E-01  0.1754E-02
 -17.656  0.1478E-01  0.1901E-02
 -17.646  0.1591E-01  0.2060E-02
 -17.636  0.1712E-01  0.2232E-02
 -17.626  0.1841E-01  0.2416E-02
 -17.616  0.1979E-01  0.2614E-02
 -17.606  0.2126E-01  0.2826E-02
 -17.596  0.2282E-01  0.3055E-02
 -17.586  0.2449E-01  0.3299E-02
 -17.576  0.2626E-01  0.3562E-02
 -17.566  0.2815E-01  0.3844E-02
 -17.556  0.3015E-01  0.4145E-02
 -17.546  0.3228E-01  0.4468E-02
 -17.536  0.3454E-01  0.4813E-02
 -17.526  0.3694E-01  0.5183E-02
 -17.516  0.3948E-01  0.5578E-02
 -17.506  0.4218E-01  0.5999E-02
 -17.496  0.4503E-01  0.6450E-02
 -17.486  0.4805E-01  0.6930E-02
 -17.476  0.5124E-01  0.7443E-02
 -17.466  0.5461E-01  0.7989E-02
 -17.456  0.5818E-01  0.8570E-02
 -17.446  0.6194E-01  0.9190E-02
 -17.436  0.6591E-01  0.9849E-02
 -17.426  0.7009E-01  0.1055E-01
 -17.416  0.7450E-01  0.1129E-01
 -17.406  0.7914E-01  0.1209E-01
 -17.396  0.8403E-01  0.1293E-01
 -17.386  0.8917E-01  0.1382E-01
 -17.376  0.9457E-01  0.1476E-01
 -17.366  0.1002E+00  0.1577E-01
 -17.356  0.1062E+00  0.1683E-01
 -17.346  0.1125E+00  0.1795E-01
 -17.336  0.1190E+00  0.1914E-01
 -17.326  0.1259E+00  0.2040E-01
 -17.316  0.1331E+00  0.2173E-01
 -17.306  0.1406E+00  0.2314E-01
 -17.296  0.1485E+00  0.2462E-01
 -17.286  0.1567E+00  0.2619E-01
 -17.276  0.1653E+00  0.2784E-01
 -17.266  0.1743E+00  0.2959E-01
 -17.256  0.1836E+00  0.3142E-01
 -17.246  0.1934E+00  0.3336E-01
 -17.236  0.2036E+00  0.3539E-01
 -17.226  0.2142E+00  0.3753E-01
 -17.216  0.2252E+00  0.3979E-01
 -17.206  0.2367E+00  0.4215E-01
 -17.196  0.2486E+00  0.4464E-01
 -17.186  0.2610E+00  0.4725E-01
 -17.176  0.2738E+00  0.4999E-01
 -17.166  0.2872E+00  0.5286E-01
 -17.156  0.3010E+00  0.5587E-01
 -17.146  0.3153E+00  0.5902E-01
 -17.136  0.3302E+00  0.6232E-01
 -17.126  0.3455E+00  0.6578E-01
 -17.116  0.3614E+00  0.6939E-01
 -17.106  0.3779E+00  0.7317E-01
 -17.096  0.3948E+00  0.7712E-01
 -17.086  0.4123E+00  0.8124E-01
 -17.076  0.4304E+00  0.8555E-01
 -17.066  0.4490E+00  0.9004E-01
 -17.056  0.4682E+00  0.9472E-01
 -17.046  0.4880E+00  0.9960E-01
 -17.036  0.5083E+00  0.1047E+00
 -17.026  0.5293E+00  0.1100E+00
 -17.016  0.5508E+00  0.1155E+00
 -17.006  0.5728E+00  0.1212E+00
 -16.996  0.5955E+00  0.1272E+00
 -16.986  0.6187E+00  0.1334E+00
 -16.976  0.6426E+00  0.1398E+00
 -16.966  0.6670E+00  0.1464E+00
 -16.956  0.6920E+00  0.1534E+00
 -16.946  0.7175E+00  0.1605E+00
 -16.936  0.7437E+00  0.1680E+00
 -16.926  0.7704E+00  0.1757E+00
 -16.916  0.7976E+00  0.1837E+00
 -16.906  0.8255E+00  0.1919E+00
 -16.896  0.8539E+00  0.2005E+00
 -16.886  0.8828E+00  0.2093E+00
 -16.876  0.9122E+00  0.2184E+00
 -16.866  0.9422E+00  0.2278E+00
 -16.856  0.9727E+00  0.2376E+00
 -16.846  0.1004E+01  0.2476E+00
 -16.836  0.1035E+01  0.2579E+00
 -16.826  0.1067E+01  0.2686E+00
 -16.816  0.1099E+01  0.2796E+00
 -16.806  0.1132E+01  0.2909E+00
 -16.796  0.1166E+01  0.3026E+00
 -16.786  0.1199E+01  0.3146E+00
 -16.776  0.1233E+01  0.3269E+00
 -16.766  0.1268E+01  0.3396E+00
 -16.756  0.1302E+01  0.3526E+00
 -16.746  0.1338E+01  0.3660E+00
 -16.736  0.1373E+01  0.3797E+00
 -16.726  0.1409E+01  0.3938E+00
 -16.716  0.1445E+01  0.4082E+00
 -16.706  0.1481E+01  0.4231E+00
 -16.696  0.1517E+01  0.4382E+00
 -16.686  0.1554E+01  0.4538E+00
 -16.676  0.1591E+01  0.4697E+00
 -16.666  0.1627E+01  0.4859E+00
 -16.656  0.1664E+01  0.5026E+00
 -16.646  0.1702E+01  0.5196E+00
 -16.636  0.1739E+01  0.5370E+00
 -16.626  0.1776E+01  0.5547E+00
 -16.616  0.1813E+01  0.5729E+00
 -16.606  0.1850E+01  0.5914E+00
 -16.596  0.1887E+01  0.6103E+00
 -16.586  0.1924E+01  0.6295E+00
 -16.576  0.1961E+01  0.6491E+00
 -16.566  0.1998E+01  0.6691E+00
 -16.556  0.2035E+01  0.6894E+00
 -16.546  0.2071E+01  0.7101E+00
 -16.536  0.2107E+01  0.7312E+00
 -16.526  0.2143E+01  0.7526E+00
 -16.516  0.2179E+01  0.7744E+00
 -16.506  0.2214E+01  0.7966E+00
 -16.496  0.2249E+01  0.8191E+00
 -16.486  0.2284E+01  0.8419E+00
 -16.476  0.2318E+01  0.8651E+00
 -16.466  0.2352E+01  0.8886E+00
 -16.456  0.2386E+01  0.9125E+00
 -16.446  0.2419E+01  0.9367E+00
 -16.436  0.2451E+01  0.9612E+00
 -16.426  0.2484E+01  0.9860E+00
 -16.416  0.2515E+01  0.1011E+01
 -16.406  0.2546E+01  0.1037E+01
 -16.396  0.2577E+01  0.1062E+01
 -16.386  0.2607E+01  0.1088E+01
 -16.376  0.2636E+01  0.1115E+01
 -16.366  0.2665E+01  0.1141E+01
 -16.356  0.2693E+01  0.1168E+01
 -16.346  0.2721E+01  0.1196E+01
 -16.336  0.2748E+01  0.1223E+01
 -16.326  0.2774E+01  0.1251E+01
 -16.316  0.2800E+01  0.1279E+01
 -16.306  0.2825E+01  0.1307E+01
 -16.296  0.2849E+01  0.1336E+01
 -16.286  0.2872E+01  0.1364E+01
 -16.276  0.2895E+01  0.1393E+01
 -16.266  0.2918E+01  0.1422E+01
 -16.256  0.2939E+01  0.1452E+01
 -16.246  0.2960E+01  0.1481E+01
 -16.236  0.2980E+01  0.1511E+01
 -16.226  0.2999E+01  0.1541E+01
 -16.216  0.3018E+01  0.1571E+01
 -16.206  0.3036E+01  0.1602E+01
 -16.196  0.3053E+01  0.1632E+01
 -16.186  0.3070E+01  0.1663E+01
 -16.176  0.3086E+01  0.1694E+01
 -16.166  0.3101E+01  0.1725E+01
 -16.156  0.3115E+01  0.1756E+01
 -16.146  0.3129E+01  0.1787E+01
 -16.136  0.3142E+01  0.1819E+01
 -16.126  0.3155E+01  0.1850E+01
 -16.116  0.3167E+01  0.1882E+01
 -16.106  0.3178E+01  0.1914E+01
 -16.096  0.3188E+01  0.1946E+01
 -16.086  0.3198E+01  0.1978E+01
 -16.076  0.3208E+01  0.2010E+01
 -16.066  0.3216E+01  0.2042E+01
 -16.056  0.3225E+01  0.2074E+01
 -16.046  0.3232E+01  0.2106E+01
 -16.036  0.3239E+01  0.2139E+01
 -16.026  0.3246E+01  0.2171E+01
 -16.016  0.3252E+01  0.2204E+01
 -16.006  0.3258E+01  0.2236E+01
 -15.996  0.3263E+01  0.2269E+01
 -15.986  0.3267E+01  0.2302E+01
 -15.976  0.3272E+01  0.2334E+01
 -15.966  0.3275E+01  0.2367E+01
 -15.956  0.3279E+01  0.2400E+01
 -15.946  0.3282E+01  0.2433E+01
 -15.936  0.3285E+01  0.2466E+01
 -15.926  0.3287E+01  0.2498E+01
 -15.916  0.3289E+01  0.2531E+01
 -15.906  0.3291E+01  0.2564E+01
 -15.896  0.3293E+01  0.2597E+01
 -15.886  0.3294E+01  0.2630E+01
 -15.876  0.3295E+01  0.2663E+01
 -15.866  0.3296E+01  0.2696E+01
 -15.856  0.3297E+01  0.2729E+01
 -15.846  0.3298E+01  0.2762E+01
 -15.836  0.3298E+01  0.2795E+01
 -15.826  0.3299E+01  0.2828E+01
 -15.816  0.3299E+01  0.2861E+01
 -15.806  0.3300E+01  0.2894E+01
 -15.796  0.3300E+01  0.2927E+01
 -15.786  0.3301E+01  0.2960E+01
 -15.776  0.3301E+01  0.2993E+01
 -15.766  0.3302E+01  0.3026E+01
 -15.756  0.3303E+01  0.3059E+01
 -15.746  0.3304E+01  0.3092E+01
 -15.736  0.3305E+01  0.3125E+01
 -15.726  0.3307E+01  0.3158E+01
 -15.716  0.3308E+01  0.3191E+01
 -15.706  0.3310E+01  0.3224E+01
 -15.696  0.3313E+01  0.3257E+01
 -15.686  0.3315E+01  0.3291E+01
 -15.676  0.3319E+01  0.3324E+01
 -15.666  0.3322E+01  0.3357E+01
 -15.656  0.3326E+01  0.3390E+01
 -15.646  0.3330E+01  0.3424E+01
 -15.636  0.3335E+01  0.3457E+01
 -15.626  0.3341E+01  0.3490E+01
 -15.616  0.3347E+01  0.3524E+01
 -15.606  0.3354E+01  0.3557E+01
 -15.596  0.3361E+01  0.3591E+01
 -15.586  0.3369E+01  0.3625E+01
 -15.576  0.3378E+01  0.3658E+01
 -15.566  0.3387E+01  0.3692E+01
 -15.556  0.3398E+01  0.3726E+01
 -15.546  0.3409E+01  0.3760E+01
 -15.536  0.3421E+01  0.3795E+01
 -15.526  0.3434E+01  0.3829E+01
 -15.516  0.3447E+01  0.3863E+01
 -15.506  0.3462E+01  0.3898E+01
 -15.496  0.3478E+01  0.3933E+01
 -15.486  0.3494E+01  0.3968E+01
 -15.476  0.3512E+01  0.4003E+01
 -15.466  0.3531E+01  0.4038E+01
 -15.456  0.3551E+01  0.4074E+01
 -15.446  0.3572E+01  0.4109E+01
 -15.436  0.3594E+01  0.4145E+01
 -15.426  0.3618E+01  0.4181E+01
 -15.416  0.3642E+01  0.4218E+01
 -15.406  0.3668E+01  0.4255E+01
 -15.396  0.3695E+01  0.4292E+01
 -15.386  0.3723E+01  0.4329E+01
 -15.376  0.3753E+01  0.4366E+01
 -15.366  0.3784E+01  0.4404E+01
 -15.356  0.3816E+01  0.4442E+01
 -15.346  0.3850E+01  0.4481E+01
 -15.336  0.3885E+01  0.4520E+01
 -15.326  0.3921E+01  0.4559E+01
 -15.316  0.3959E+01  0.4598E+01
 -15.306  0.3998E+01  0.4638E+01
 -15.296  0.4038E+01  0.4679E+01
 -15.286  0.4080E+01  0.4720E+01
 -15.276  0.4123E+01  0.4761E+01
 -15.266  0.4168E+01  0.4803E+01
 -15.256  0.4214E+01  0.4845E+01
 -15.246  0.4261E+01  0.4887E+01
 -15.236  0.4310E+01  0.4930E+01
 -15.226  0.4360E+01  0.4974E+01
 -15.216  0.4411E+01  0.5018E+01
 -15.206  0.4463E+01  0.5063E+01
 -15.196  0.4517E+01  0.5108E+01
 -15.186  0.4572E+01  0.5154E+01
 -15.176  0.4628E+01  0.5200E+01
 -15.166  0.4686E+01  0.5247E+01
 -15.156  0.4744E+01  0.5294E+01
 -15.146  0.4804E+01  0.5342E+01
 -15.136  0.4864E+01  0.5391E+01
 -15.126  0.4926E+01  0.5440E+01
 -15.116  0.4988E+01  0.5490E+01
 -15.106  0.5051E+01  0.5540E+01
 -15.096  0.5115E+01  0.5592E+01
 -15.086  0.5180E+01  0.5643E+01
 -15.076  0.5245E+01  0.5696E+01
 -15.066  0.5311E+01  0.5749E+01
 -15.056  0.5377E+01  0.5803E+01
 -15.046  0.5443E+01  0.5857E+01
 -15.036  0.5510E+01  0.5912E+01
 -15.026  0.5577E+01  0.5968E+01
 -15.016  0.5644E+01  0.6025E+01
 -15.006  0.5712E+01  0.6082E+01
 -14.996  0.5779E+01  0.6139E+01
 -14.986  0.5845E+01  0.6198E+01
 -14.976  0.5912E+01  0.6257E+01
 -14.966  0.5978E+01  0.6317E+01
 -14.956  0.6043E+01  0.6377E+01
 -14.946  0.6108E+01  0.6438E+01
 -14.936  0.6172E+01  0.6500E+01
 -14.926  0.6235E+01  0.6562E+01
 -14.916  0.6297E+01  0.6625E+01
 -14.906  0.6358E+01  0.6689E+01
 -14.896  0.6417E+01  0.6753E+01
 -14.886  0.6476E+01  0.6818E+01
 -14.876  0.6532E+01  0.6883E+01
 -14.866  0.6587E+01  0.6949E+01
 -14.856  0.6640E+01  0.7015E+01
 -14.846  0.6692E+01  0.7082E+01
 -14.836  0.6741E+01  0.7150E+01
 -14.826  0.6788E+01  0.7218E+01
 -14.816  0.6833E+01  0.7286E+01
 -14.806  0.6875E+01  0.7355E+01
 -14.796  0.6915E+01  0.7424E+01
 -14.786  0.6953E+01  0.7493E+01
 -14.776  0.6988E+01  0.7563E+01
 -14.766  0.7019E+01  0.7633E+01
 -14.756  0.7048E+01  0.7704E+01
 -14.746  0.7074E+01  0.7775E+01
 -14.736  0.7097E+01  0.7846E+01
 -14.726  0.7117E+01  0.7917E+01
 -14.716  0.7133E+01  0.7988E+01
 -14.706  0.7147E+01  0.8060E+01
 -14.696  0.7156E+01  0.8131E+01
 -14.686  0.7163E+01  0.8203E+01
 -14.676  0.7165E+01  0.8274E+01
 -14.666  0.7165E+01  0.8346E+01
 -14.656  0.7160E+01  0.8418E+01
 -14.646  0.7152E+01  0.8489E+01
 -14.636  0.7141E+01  0.8561E+01
 -14.626  0.7125E+01  0.8632E+01
 -14.616  0.7106E+01  0.8703E+01
 -14.606  0.7083E+01  0.8774E+01
 -14.596  0.7057E+01  0.8844E+01
 -14.586  0.7027E+01  0.8915E+01
 -14.576  0.6993E+01  0.8985E+01
 -14.566  0.6955E+01  0.9054E+01
 -14.556  0.6914E+01  0.9123E+01
 -14.546  0.6869E+01  0.9192E+01
 -14.536  0.6821E+01  0.9260E+01
 -14.526  0.6769E+01  0.9328E+01
 -14.516  0.6714E+01  0.9395E+01
 -14.506  0.6656E+01  0.9462E+01
 -14.496  0.6594E+01  0.9527E+01
 -14.486  0.6529E+01  0.9593E+01
 -14.476  0.6461E+01  0.9657E+01
 -14.466  0.6390E+01  0.9721E+01
 -14.456  0.6315E+01  0.9784E+01
 -14.446  0.6239E+01  0.9847E+01
 -14.436  0.6159E+01  0.9908E+01
 -14.426  0.6077E+01  0.9969E+01
 -14.416  0.5992E+01  0.1003E+02
 -14.406  0.5905E+01  0.1009E+02
 -14.396  0.5815E+01  0.1015E+02
 -14.386  0.5724E+01  0.1020E+02
 -14.376  0.5630E+01  0.1026E+02
 -14.366  0.5535E+01  0.1032E+02
 -14.356  0.5438E+01  0.1037E+02
 -14.346  0.5339E+01  0.1042E+02
 -14.336  0.5239E+01  0.1048E+02
 -14.326  0.5138E+01  0.1053E+02
 -14.316  0.5035E+01  0.1058E+02
 -14.306  0.4932E+01  0.1063E+02
 -14.296  0.4827E+01  0.1067E+02
 -14.286  0.4722E+01  0.1072E+02
 -14.276  0.4616E+01  0.1077E+02
 -14.266  0.4510E+01  0.1081E+02
 -14.256  0.4403E+01  0.1086E+02
 -14.246  0.4297E+01  0.1090E+02
 -14.236  0.4190E+01  0.1094E+02
 -14.226  0.4083E+01  0.1098E+02
 -14.216  0.3976E+01  0.1102E+02
 -14.206  0.3870E+01  0.1106E+02
 -14.196  0.3764E+01  0.1110E+02
 -14.186  0.3659E+01  0.1114E+02
 -14.176  0.3555E+01  0.1117E+02
 -14.166  0.3451E+01  0.1121E+02
 -14.156  0.3348E+01  0.1124E+02
 -14.146  0.3246E+01  0.1127E+02
 -14.136  0.3145E+01  0.1130E+02
 -14.126  0.3045E+01  0.1133E+02
 -14.116  0.2947E+01  0.1136E+02
 -14.106  0.2850E+01  0.1139E+02
 -14.096  0.2754E+01  0.1142E+02
 -14.086  0.2660E+01  0.1145E+02
 -14.076  0.2567E+01  0.1147E+02
 -14.066  0.2476E+01  0.1150E+02
 -14.056  0.2387E+01  0.1152E+02
 -14.046  0.2299E+01  0.1154E+02
 -14.036  0.2213E+01  0.1157E+02
 -14.026  0.2129E+01  0.1159E+02
 -14.016  0.2047E+01  0.1161E+02
 -14.006  0.1967E+01  0.1163E+02
 -13.996  0.1889E+01  0.1165E+02
 -13.986  0.1812E+01  0.1166E+02
 -13.976  0.1738E+01  0.1168E+02
 -13.966  0.1665E+01  0.1170E+02
 -13.956  0.1595E+01  0.1171E+02
 -13.946  0.1526E+01  0.1173E+02
 -13.936  0.1460E+01  0.1174E+02
 -13.926  0.1395E+01  0.1176E+02
 -13.916  0.1332E+01  0.1177E+02
 -13.906  0.1272E+01  0.1178E+02
 -13.896  0.1213E+01  0.1180E+02
 -13.886  0.1156E+01  0.1181E+02
 -13.876  0.1102E+01  0.1182E+02
 -13.866  0.1049E+01  0.1183E+02
 -13.856  0.9978E+00  0.1184E+02
 -13.846  0.9487E+00  0.1185E+02
 -13.836  0.9013E+00  0.1186E+02
 -13.826  0.8558E+00  0.1187E+02
 -13.816  0.8121E+00  0.1187E+02
 -13.806  0.7700E+00  0.1188E+02
 -13.796  0.7297E+00  0.1189E+02
 -13.786  0.6910E+00  0.1190E+02
 -13.776  0.6539E+00  0.1190E+02
 -13.766  0.6184E+00  0.1191E+02
 -13.756  0.5845E+00  0.1191E+02
 -13.746  0.5520E+00  0.1192E+02
 -13.736  0.5210E+00  0.1192E+02
 -13.726  0.4915E+00  0.1193E+02
 -13.716  0.4632E+00  0.1193E+02
 -13.706  0.4364E+00  0.1194E+02
 -13.696  0.4108E+00  0.1194E+02
 -13.686  0.3864E+00  0.1195E+02
 -13.676  0.3633E+00  0.1195E+02
 -13.666  0.3413E+00  0.1195E+02
 -13.656  0.3204E+00  0.1196E+02
 -13.646  0.3006E+00  0.1196E+02
 -13.636  0.2819E+00  0.1196E+02
 -13.626  0.2641E+00  0.1197E+02
 -13.616  0.2473E+00  0.1197E+02
 -13.606  0.2314E+00  0.1197E+02
 -13.596  0.2164E+00  0.1197E+02
 -13.586  0.2022E+00  0.1197E+02
 -13.576  0.1889E+00  0.1198E+02
 -13.566  0.1762E+00  0.1198E+02
 -13.556  0.1644E+00  0.1198E+02
 -13.546  0.1532E+00  0.1198E+02
 -13.536  0.1427E+00  0.1198E+02
 -13.526  0.1328E+00  0.1198E+02
 -13.516  0.1235E+00  0.1199E+02
 -13.506  0.1148E+00  0.1199E+02
 -13.496  0.1067E+00  0.1199E+02
 -13.486  0.9901E-01  0.1199E+02
 -13.476  0.9185E-01  0.1199E+02
 -13.466  0.8515E-01  0.1199E+02
 -13.456  0.7889E-01  0.1199E+02
 -13.446  0.7304E-01  0.1199E+02
 -13.436  0.6757E-01  0.1199E+02
 -13.426  0.6248E-01  0.1199E+02
 -13.416  0.5773E-01  0.1199E+02
 -13.406  0.5330E-01  0.1199E+02
 -13.396  0.4918E-01  0.1199E+02
 -13.386  0.4535E-01  0.1200E+02
 -13.376  0.4179E-01  0.1200E+02
 -13.366  0.3849E-01  0.1200E+02
 -13.356  0.3542E-01  0.1200E+02
 -13.346  0.3257E-01  0.1200E+02
 -13.336  0.2994E-01  0.1200E+02
 -13.326  0.2749E-01  0.1200E+02
 -13.316  0.2523E-01  0.1200E+02
 -13.306  0.2315E-01  0.1200E+02
 -13.296  0.2121E-01  0.1200E+02
 -13.286  0.1943E-01  0.1200E+02
 -13.276  0.1779E-01  0.1200E+02
 -13.266  0.1627E-01  0.1200E+02
 -13.256  0.1487E-01  0.1200E+02
 -13.246  0.1359E-01  0.1200E+02
 -13.236  0.1241E-01  0.1200E+02
 -13.226  0.1132E-01  0.1200E+02
 -13.216  0.1032E-01  0.1200E+02
 -13.206  0.9401E-02  0.1200E+02
 -13.196  0.8559E-02  0.1200E+02
 -13.186  0.7788E-02  0.1200E+02
 -13.176  0.7081E-02  0.1200E+02
 -13.166  0.6435E-02  0.1200E+02
 -13.156  0.5843E-02  0.1200E+02
 -13.146  0.5302E-02  0.1200E+02
 -13.136  0.4808E-02  0.1200E+02
 -13.126  0.4357E-02  0.1200E+02
 -13.116  0.3946E-02  0.1200E+02
 -13.106  0.3571E-02  0.1200E+02
 -13.096  0.3230E-02  0.1200E+02
 -13.086  0.2919E-02  0.1200E+02
 -13.076  0.2637E-02  0.1200E+02
 -13.066  0.2380E-02  0.1200E+02
 -13.056  0.2147E-02  0.1200E+02
 -13.046  0.1935E-02  0.1200E+02
 -13.036  0.1743E-02  0.1200E+02
 -13.026  0.1569E-02  0.1200E+02
 -13.016  0.1412E-02  0.1200E+02
 -13.006  0.1269E-02  0.1200E+02
 -12.996  0.1140E-02  0.1200E+02
 -12.986  0.1024E-02  0.1200E+02
 -12.976  0.9183E-03  0.1200E+02
 -12.966  0.8233E-03  0.1200E+02
 -12.956  0.7377E-03  0.1200E+02
 -12.946  0.6605E-03  0.1200E+02
 -12.936  0.5910E-03  0.1200E+02
 -12.926  0.5285E-03  0.1200E+02
 -12.916  0.4722E-03  0.1200E+02
 -12.906  0.4217E-03  0.1200E+02
 -12.896  0.3763E-03  0.1200E+02
 -12.886  0.3356E-03  0.1200E+02
 -12.876  0.2991E-03  0.1200E+02
 -12.866  0.2664E-03  0.1200E+02
 -12.856  0.2371E-03  0.1200E+02
 -12.846  0.2109E-03  0.1200E+02
 -12.836  0.1874E-03  0.1200E+02
 -12.826  0.1665E-03  0.1200E+02
 -12.816  0.1478E-03  0.1200E+02
 -12.806  0.1311E-03  0.1200E+02
 -12.796  0.1162E-03  0.1200E+02
 -12.786  0.1029E-03  0.1200E+02
 -12.776  0.9111E-04  0.1200E+02
 -12.766  0.8060E-04  0.1200E+02
 -12.756  0.7126E-04  0.1200E+02
 -12.746  0.6295E-04  0.1200E+02
 -12.736  0.5558E-04  0.1200E+02
 -12.726  0.4904E-04  0.1200E+02
 -12.716  0.4324E-04  0.1200E+02
 -12.706  0.3810E-04  0.1200E+02
 -12.696  0.3354E-04  0.1200E+02
 -12.686  0.2952E-04  0.1200E+02
 -12.676  0.2595E-04  0.1200E+02
 -12.666  0.2281E-04  0.1200E+02
 -12.656  0.2003E-04  0.1200E+02
 -12.646  0.1758E-04  0.1200E+02
 -12.636  0.1541E-04  0.1200E+02
 -12.626  0.1351E-04  0.1200E+02
 -12.616  0.1183E-04  0.1200E+02
 -12.606  0.1036E-04  0.1200E+02
 -12.596  0.9057E-05  0.1200E+02
 -12.586  0.7916E-05  0.1200E+02
 -12.576  0.6915E-05  0.1200E+02
 -12.566  0.6036E-05  0.1200E+02
 -12.556  0.5265E-05  0.1200E+02
 -12.546  0.4590E-05  0.1200E+02
 -12.536  0.3998E-05  0.1200E+02
 -12.526  0.3480E-05  0.1200E+02
 -12.516  0.3028E-05  0.1200E+02
 -12.506  0.2632E-05  0.1200E+02
 -12.496  0.2287E-05  0.1200E+02
 -12.486  0.1986E-05  0.1200E+02
 -12.476  0.1723E-05  0.1200E+02
 -12.466  0.1494E-05  0.1200E+02
 -12.456  0.1294E-05  0.1200E+02
 -12.446  0.1121E-05  0.1200E+02
 -12.436  0.9698E-06  0.1200E+02
 -12.426  0.8386E-06  0.1200E+02
 -12.416  0.7247E-06  0.1200E+02
 -12.406  0.6258E-06  0.1200E+02
 -12.396  0.5401E-06  0.1200E+02
 -12.386  0.4657E-06  0.1200E+02
 -12.376  0.4014E-06  0.1200E+02
