#  E (eV)   dos(E)     Int dos(E) EFermi =    2.576 eV
 -20.038  0.1754E-04  0.1754E-06
 -20.028  0.1862E-04  0.3615E-06
 -20.018  0.1976E-04  0.5591E-06
 -20.008  0.2096E-04  0.7687E-06
 -19.998  0.2224E-04  0.9912E-06
 -19.988  0.2359E-04  0.1227E-05
 -19.978  0.2502E-04  0.1477E-05
 -19.968  0.2654E-04  0.1743E-05
 -19.958  0.2814E-04  0.2024E-05
 -19.948  0.2983E-04  0.2322E-05
 -19.938  0.3161E-04  0.2638E-05
 -19.928  0.3350E-04  0.2973E-05
 -19.918  0.3550E-04  0.3328E-05
 -19.908  0.3761E-04  0.3705E-05
 -19.898  0.3984E-04  0.4103E-05
 -19.888  0.4219E-04  0.4525E-05
 -19.878  0.4468E-04  0.4972E-05
 -19.868  0.4731E-04  0.5445E-05
 -19.858  0.5008E-04  0.5946E-05
 -19.848  0.5300E-04  0.6476E-05
 -19.838  0.5609E-04  0.7037E-05
 -19.828  0.5935E-04  0.7630E-05
 -19.818  0.6279E-04  0.8258E-05
 -19.808  0.6641E-04  0.8922E-05
 -19.798  0.7024E-04  0.9624E-05
 -19.788  0.7427E-04  0.1037E-04
 -19.778  0.7852E-04  0.1115E-04
 -19.768  0.8301E-04  0.1198E-04
 -19.758  0.8773E-04  0.1286E-04
 -19.748  0.9271E-04  0.1379E-04
 -19.738  0.9796E-04  0.1477E-04
 -19.728  0.1035E-03  0.1580E-04
 -19.718  0.1093E-03  0.1689E-04
 -19.708  0.1154E-03  0.1805E-04
 -19.698  0.1219E-03  0.1927E-04
 -19.688  0.1287E-03  0.2055E-04
 -19.678  0.1358E-03  0.2191E-04
 -19.668  0.1434E-03  0.2335E-04
 -19.658  0.1513E-03  0.2486E-04
 -19.648  0.1596E-03  0.2646E-04
 -19.638  0.1684E-03  0.2814E-04
 -19.628  0.1776E-03  0.2992E-04
 -19.618  0.1873E-03  0.3179E-04
 -19.608  0.1975E-03  0.3376E-04
 -19.598  0.2082E-03  0.3585E-04
 -19.588  0.2195E-03  0.3804E-04
 -19.578  0.2313E-03  0.4035E-04
 -19.568  0.2437E-03  0.4279E-04
 -19.558  0.2568E-03  0.4536E-04
 -19.548  0.2705E-03  0.4806E-04
 -19.538  0.2849E-03  0.5091E-04
 -19.528  0.3001E-03  0.5391E-04
 -19.518  0.3159E-03  0.5707E-04
 -19.508  0.3326E-03  0.6040E-04
 -19.498  0.3501E-03  0.6390E-04
 -19.488  0.3685E-03  0.6758E-04
 -19.478  0.3877E-03  0.7146E-04
 -19.468  0.4079E-03  0.7554E-04
 -19.458  0.4291E-03  0.7983E-04
 -19.448  0.4513E-03  0.8435E-04
 -19.438  0.4746E-03  0.8909E-04
 -19.428  0.4990E-03  0.9408E-04
 -19.418  0.5246E-03  0.9933E-04
 -19.408  0.5514E-03  0.1048E-03
 -19.398  0.5795E-03  0.1106E-03
 -19.388  0.6089E-03  0.1167E-03
 -19.378  0.6397E-03  0.1231E-03
 -19.368  0.6720E-03  0.1298E-03
 -19.358  0.7058E-03  0.1369E-03
 -19.348  0.7412E-03  0.1443E-03
 -19.338  0.7782E-03  0.1521E-03
 -19.328  0.8170E-03  0.1603E-03
 -19.318  0.8575E-03  0.1688E-03
 -19.308  0.8999E-03  0.1778E-03
 -19.298  0.9443E-03  0.1873E-03
 -19.288  0.9907E-03  0.1972E-03
 -19.278  0.1039E-02  0.2076E-03
 -19.268  0.1090E-02  0.2185E-03
 -19.258  0.1143E-02  0.2299E-03
 -19.248  0.1198E-02  0.2419E-03
 -19.238  0.1256E-02  0.2545E-03
 -19.228  0.1317E-02  0.2676E-03
 -19.218  0.1380E-02  0.2814E-03
 -19.208  0.1446E-02  0.2959E-03
 -19.198  0.1515E-02  0.3110E-03
 -19.188  0.1587E-02  0.3269E-03
 -19.178  0.1662E-02  0.3435E-03
 -19.168  0.1740E-02  0.3609E-03
 -19.158  0.1822E-02  0.3791E-03
 -19.148  0.1907E-02  0.3982E-03
 -19.138  0.1996E-02  0.4182E-03
 -19.128  0.2089E-02  0.4391E-03
 -19.118  0.2186E-02  0.4609E-03
 -19.108  0.2287E-02  0.4838E-03
 -19.098  0.2392E-02  0.5077E-03
 -19.088  0.2502E-02  0.5328E-03
 -19.078  0.2617E-02  0.5589E-03
 -19.068  0.2736E-02  0.5863E-03
 -19.058  0.2860E-02  0.6149E-03
 -19.048  0.2989E-02  0.6448E-03
 -19.038  0.3124E-02  0.6760E-03
 -19.028  0.3264E-02  0.7086E-03
 -19.018  0.3410E-02  0.7427E-03
 -19.008  0.3562E-02  0.7784E-03
 -18.998  0.3720E-02  0.8156E-03
 -18.988  0.3885E-02  0.8544E-03
 -18.978  0.4056E-02  0.8950E-03
 -18.968  0.4234E-02  0.9373E-03
 -18.958  0.4420E-02  0.9815E-03
 -18.948  0.4612E-02  0.1028E-02
 -18.938  0.4813E-02  0.1076E-02
 -18.928  0.5021E-02  0.1126E-02
 -18.918  0.5237E-02  0.1178E-02
 -18.908  0.5462E-02  0.1233E-02
 -18.898  0.5696E-02  0.1290E-02
 -18.888  0.5939E-02  0.1349E-02
 -18.878  0.6191E-02  0.1411E-02
 -18.868  0.6453E-02  0.1476E-02
 -18.858  0.6725E-02  0.1543E-02
 -18.848  0.7007E-02  0.1613E-02
 -18.838  0.7300E-02  0.1686E-02
 -18.828  0.7605E-02  0.1762E-02
 -18.818  0.7920E-02  0.1841E-02
 -18.808  0.8248E-02  0.1924E-02
 -18.798  0.8587E-02  0.2010E-02
 -18.788  0.8940E-02  0.2099E-02
 -18.778  0.9305E-02  0.2192E-02
 -18.768  0.9684E-02  0.2289E-02
 -18.758  0.1008E-01  0.2390E-02
 -18.748  0.1048E-01  0.2495E-02
 -18.738  0.1091E-01  0.2604E-02
 -18.728  0.1134E-01  0.2717E-02
 -18.718  0.1179E-01  0.2835E-02
 -18.708  0.1226E-01  0.2958E-02
 -18.698  0.1275E-01  0.3085E-02
 -18.688  0.1325E-01  0.3218E-02
 -18.678  0.1377E-01  0.3355E-02
 -18.668  0.1431E-01  0.3498E-02
 -18.658  0.1487E-01  0.3647E-02
 -18.648  0.1544E-01  0.3802E-02
 -18.638  0.1604E-01  0.3962E-02
 -18.628  0.1666E-01  0.4129E-02
 -18.618  0.1730E-01  0.4302E-02
 -18.608  0.1796E-01  0.4481E-02
 -18.598  0.1864E-01  0.4668E-02
 -18.588  0.1934E-01  0.4861E-02
 -18.578  0.2007E-01  0.5062E-02
 -18.568  0.2083E-01  0.5270E-02
 -18.558  0.2160E-01  0.5486E-02
 -18.548  0.2241E-01  0.5710E-02
 -18.538  0.2324E-01  0.5942E-02
 -18.528  0.2410E-01  0.6183E-02
 -18.518  0.2498E-01  0.6433E-02
 -18.508  0.2590E-01  0.6692E-02
 -18.498  0.2684E-01  0.6961E-02
 -18.488  0.2781E-01  0.7239E-02
 -18.478  0.2882E-01  0.7527E-02
 -18.468  0.2985E-01  0.7825E-02
 -18.458  0.3092E-01  0.8135E-02
 -18.448  0.3202E-01  0.8455E-02
 -18.438  0.3316E-01  0.8786E-02
 -18.428  0.3433E-01  0.9130E-02
 -18.418  0.3554E-01  0.9485E-02
 -18.408  0.3678E-01  0.9853E-02
 -18.398  0.3806E-01  0.1023E-01
 -18.388  0.3938E-01  0.1063E-01
 -18.378  0.4074E-01  0.1103E-01
 -18.368  0.4215E-01  0.1146E-01
 -18.358  0.4359E-01  0.1189E-01
 -18.348  0.4507E-01  0.1234E-01
 -18.338  0.4660E-01  0.1281E-01
 -18.328  0.4818E-01  0.1329E-01
 -18.318  0.4980E-01  0.1379E-01
 -18.308  0.5146E-01  0.1430E-01
 -18.298  0.5317E-01  0.1483E-01
 -18.288  0.5494E-01  0.1538E-01
 -18.278  0.5675E-01  0.1595E-01
 -18.268  0.5861E-01  0.1654E-01
 -18.258  0.6053E-01  0.1714E-01
 -18.248  0.6250E-01  0.1777E-01
 -18.238  0.6452E-01  0.1841E-01
 -18.228  0.6660E-01  0.1908E-01
 -18.218  0.6873E-01  0.1977E-01
 -18.208  0.7093E-01  0.2048E-01
 -18.198  0.7318E-01  0.2121E-01
 -18.188  0.7549E-01  0.2196E-01
 -18.178  0.7787E-01  0.2274E-01
 -18.168  0.8030E-01  0.2354E-01
 -18.158  0.8280E-01  0.2437E-01
 -18.148  0.8537E-01  0.2523E-01
 -18.138  0.8800E-01  0.2611E-01
 -18.128  0.9070E-01  0.2701E-01
 -18.118  0.9347E-01  0.2795E-01
 -18.108  0.9631E-01  0.2891E-01
 -18.098  0.9922E-01  0.2990E-01
 -18.088  0.1022E+00  0.3093E-01
 -18.078  0.1053E+00  0.3198E-01
 -18.068  0.1084E+00  0.3306E-01
 -18.058  0.1116E+00  0.3418E-01
 -18.048  0.1149E+00  0.3533E-01
 -18.038  0.1183E+00  0.3651E-01
 -18.028  0.1217E+00  0.3773E-01
 -18.018  0.1253E+00  0.3898E-01
 -18.008  0.1289E+00  0.4027E-01
 -17.998  0.1326E+00  0.4159E-01
 -17.988  0.1364E+00  0.4296E-01
 -17.978  0.1402E+00  0.4436E-01
 -17.968  0.1442E+00  0.4580E-01
 -17.958  0.1482E+00  0.4728E-01
 -17.948  0.1524E+00  0.4881E-01
 -17.938  0.1566E+00  0.5037E-01
 -17.928  0.1610E+00  0.5198E-01
 -17.918  0.1654E+00  0.5364E-01
 -17.908  0.1699E+00  0.5534E-01
 -17.898  0.1745E+00  0.5708E-01
 -17.888  0.1793E+00  0.5888E-01
 -17.878  0.1841E+00  0.6072E-01
 -17.868  0.1890E+00  0.6261E-01
 -17.858  0.1941E+00  0.6455E-01
 -17.848  0.1992E+00  0.6654E-01
 -17.838  0.2044E+00  0.6858E-01
 -17.828  0.2098E+00  0.7068E-01
 -17.818  0.2153E+00  0.7283E-01
 -17.808  0.2208E+00  0.7504E-01
 -17.798  0.2265E+00  0.7731E-01
 -17.788  0.2323E+00  0.7963E-01
 -17.778  0.2382E+00  0.8201E-01
 -17.768  0.2443E+00  0.8446E-01
 -17.758  0.2504E+00  0.8696E-01
 -17.748  0.2567E+00  0.8953E-01
 -17.738  0.2630E+00  0.9216E-01
 -17.728  0.2695E+00  0.9485E-01
 -17.718  0.2762E+00  0.9761E-01
 -17.708  0.2829E+00  0.1004E+00
 -17.698  0.2898E+00  0.1033E+00
 -17.688  0.2968E+00  0.1063E+00
 -17.678  0.3039E+00  0.1093E+00
 -17.668  0.3112E+00  0.1125E+00
 -17.658  0.3185E+00  0.1156E+00
 -17.648  0.3260E+00  0.1189E+00
 -17.638  0.3337E+00  0.1222E+00
 -17.628  0.3414E+00  0.1257E+00
 -17.618  0.3493E+00  0.1291E+00
 -17.608  0.3574E+00  0.1327E+00
 -17.598  0.3655E+00  0.1364E+00
 -17.588  0.3739E+00  0.1401E+00
 -17.578  0.3823E+00  0.1439E+00
 -17.568  0.3909E+00  0.1478E+00
 -17.558  0.3996E+00  0.1518E+00
 -17.548  0.4084E+00  0.1559E+00
 -17.538  0.4174E+00  0.1601E+00
 -17.528  0.4265E+00  0.1644E+00
 -17.518  0.4358E+00  0.1687E+00
 -17.508  0.4452E+00  0.1732E+00
 -17.498  0.4548E+00  0.1777E+00
 -17.488  0.4645E+00  0.1824E+00
 -17.478  0.4743E+00  0.1871E+00
 -17.468  0.4843E+00  0.1920E+00
 -17.458  0.4944E+00  0.1969E+00
 -17.448  0.5046E+00  0.2019E+00
 -17.438  0.5151E+00  0.2071E+00
 -17.428  0.5256E+00  0.2124E+00
 -17.418  0.5363E+00  0.2177E+00
 -17.408  0.5471E+00  0.2232E+00
 -17.398  0.5581E+00  0.2288E+00
 -17.388  0.5692E+00  0.2345E+00
 -17.378  0.5805E+00  0.2403E+00
 -17.368  0.5919E+00  0.2462E+00
 -17.358  0.6035E+00  0.2522E+00
 -17.348  0.6152E+00  0.2584E+00
 -17.338  0.6271E+00  0.2646E+00
 -17.328  0.6391E+00  0.2710E+00
 -17.318  0.6512E+00  0.2775E+00
 -17.308  0.6635E+00  0.2842E+00
 -17.298  0.6759E+00  0.2909E+00
 -17.288  0.6885E+00  0.2978E+00
 -17.278  0.7012E+00  0.3048E+00
 -17.268  0.7141E+00  0.3120E+00
 -17.258  0.7271E+00  0.3192E+00
 -17.248  0.7402E+00  0.3267E+00
 -17.238  0.7535E+00  0.3342E+00
 -17.228  0.7669E+00  0.3419E+00
 -17.218  0.7805E+00  0.3497E+00
 -17.208  0.7942E+00  0.3576E+00
 -17.198  0.8080E+00  0.3657E+00
 -17.188  0.8220E+00  0.3739E+00
 -17.178  0.8361E+00  0.3823E+00
 -17.168  0.8504E+00  0.3908E+00
 -17.158  0.8648E+00  0.3994E+00
 -17.148  0.8793E+00  0.4082E+00
 -17.138  0.8939E+00  0.4171E+00
 -17.128  0.9087E+00  0.4262E+00
 -17.118  0.9236E+00  0.4355E+00
 -17.108  0.9387E+00  0.4449E+00
 -17.098  0.9539E+00  0.4544E+00
 -17.088  0.9692E+00  0.4641E+00
 -17.078  0.9846E+00  0.4739E+00
 -17.068  0.1000E+01  0.4839E+00
 -17.058  0.1016E+01  0.4941E+00
 -17.048  0.1032E+01  0.5044E+00
 -17.038  0.1048E+01  0.5149E+00
 -17.028  0.1064E+01  0.5255E+00
 -17.018  0.1080E+01  0.5363E+00
 -17.008  0.1096E+01  0.5473E+00
 -16.998  0.1112E+01  0.5584E+00
 -16.988  0.1129E+01  0.5697E+00
 -16.978  0.1146E+01  0.5812E+00
 -16.968  0.1162E+01  0.5928E+00
 -16.958  0.1179E+01  0.6046E+00
 -16.948  0.1196E+01  0.6165E+00
 -16.938  0.1213E+01  0.6287E+00
 -16.928  0.1230E+01  0.6410E+00
 -16.918  0.1248E+01  0.6534E+00
 -16.908  0.1265E+01  0.6661E+00
 -16.898  0.1282E+01  0.6789E+00
 -16.888  0.1300E+01  0.6919E+00
 -16.878  0.1318E+01  0.7051E+00
 -16.868  0.1335E+01  0.7184E+00
 -16.858  0.1353E+01  0.7320E+00
 -16.848  0.1371E+01  0.7457E+00
 -16.838  0.1389E+01  0.7596E+00
 -16.828  0.1407E+01  0.7737E+00
 -16.818  0.1426E+01  0.7879E+00
 -16.808  0.1444E+01  0.8024E+00
 -16.798  0.1462E+01  0.8170E+00
 -16.788  0.1481E+01  0.8318E+00
 -16.778  0.1499E+01  0.8468E+00
 -16.768  0.1518E+01  0.8619E+00
 -16.758  0.1536E+01  0.8773E+00
 -16.748  0.1555E+01  0.8929E+00
 -16.738  0.1574E+01  0.9086E+00
 -16.728  0.1593E+01  0.9245E+00
 -16.718  0.1612E+01  0.9406E+00
 -16.708  0.1631E+01  0.9570E+00
 -16.698  0.1650E+01  0.9734E+00
 -16.688  0.1669E+01  0.9901E+00
 -16.678  0.1688E+01  0.1007E+01
 -16.668  0.1707E+01  0.1024E+01
 -16.658  0.1727E+01  0.1041E+01
 -16.648  0.1746E+01  0.1059E+01
 -16.638  0.1765E+01  0.1076E+01
 -16.628  0.1785E+01  0.1094E+01
 -16.618  0.1804E+01  0.1112E+01
 -16.608  0.1824E+01  0.1131E+01
 -16.598  0.1843E+01  0.1149E+01
 -16.588  0.1863E+01  0.1168E+01
 -16.578  0.1883E+01  0.1186E+01
 -16.568  0.1902E+01  0.1205E+01
 -16.558  0.1922E+01  0.1225E+01
 -16.548  0.1942E+01  0.1244E+01
 -16.538  0.1961E+01  0.1264E+01
 -16.528  0.1981E+01  0.1284E+01
 -16.518  0.2001E+01  0.1304E+01
 -16.508  0.2021E+01  0.1324E+01
 -16.498  0.2041E+01  0.1344E+01
 -16.488  0.2061E+01  0.1365E+01
 -16.478  0.2081E+01  0.1386E+01
 -16.468  0.2101E+01  0.1407E+01
 -16.458  0.2121E+01  0.1428E+01
 -16.448  0.2141E+01  0.1449E+01
 -16.438  0.2161E+01  0.1471E+01
 -16.428  0.2181E+01  0.1493E+01
 -16.418  0.2201E+01  0.1515E+01
 -16.408  0.2221E+01  0.1537E+01
 -16.398  0.2241E+01  0.1559E+01
 -16.388  0.2261E+01  0.1582E+01
 -16.378  0.2282E+01  0.1605E+01
 -16.368  0.2302E+01  0.1628E+01
 -16.358  0.2322E+01  0.1651E+01
 -16.348  0.2342E+01  0.1674E+01
 -16.338  0.2362E+01  0.1698E+01
 -16.328  0.2382E+01  0.1722E+01
 -16.318  0.2403E+01  0.1746E+01
 -16.308  0.2423E+01  0.1770E+01
 -16.298  0.2443E+01  0.1795E+01
 -16.288  0.2463E+01  0.1819E+01
 -16.278  0.2483E+01  0.1844E+01
 -16.268  0.2504E+01  0.1869E+01
 -16.258  0.2524E+01  0.1894E+01
 -16.248  0.2544E+01  0.1920E+01
 -16.238  0.2564E+01  0.1945E+01
 -16.228  0.2585E+01  0.1971E+01
 -16.218  0.2605E+01  0.1997E+01
 -16.208  0.2625E+01  0.2023E+01
 -16.198  0.2645E+01  0.2050E+01
 -16.188  0.2665E+01  0.2077E+01
 -16.178  0.2686E+01  0.2103E+01
 -16.168  0.2706E+01  0.2131E+01
 -16.158  0.2726E+01  0.2158E+01
 -16.148  0.2746E+01  0.2185E+01
 -16.138  0.2766E+01  0.2213E+01
 -16.128  0.2786E+01  0.2241E+01
 -16.118  0.2807E+01  0.2269E+01
 -16.108  0.2827E+01  0.2297E+01
 -16.098  0.2847E+01  0.2326E+01
 -16.088  0.2867E+01  0.2354E+01
 -16.078  0.2887E+01  0.2383E+01
 -16.068  0.2907E+01  0.2412E+01
 -16.058  0.2927E+01  0.2441E+01
 -16.048  0.2947E+01  0.2471E+01
 -16.038  0.2968E+01  0.2501E+01
 -16.028  0.2988E+01  0.2530E+01
 -16.018  0.3008E+01  0.2561E+01
 -16.008  0.3028E+01  0.2591E+01
 -15.998  0.3048E+01  0.2621E+01
 -15.988  0.3068E+01  0.2652E+01
 -15.978  0.3088E+01  0.2683E+01
 -15.968  0.3108E+01  0.2714E+01
 -15.958  0.3128E+01  0.2745E+01
 -15.948  0.3147E+01  0.2777E+01
 -15.938  0.3167E+01  0.2808E+01
 -15.928  0.3187E+01  0.2840E+01
 -15.918  0.3207E+01  0.2872E+01
 -15.908  0.3227E+01  0.2905E+01
 -15.898  0.3247E+01  0.2937E+01
 -15.888  0.3266E+01  0.2970E+01
 -15.878  0.3286E+01  0.3003E+01
 -15.868  0.3306E+01  0.3036E+01
 -15.858  0.3326E+01  0.3069E+01
 -15.848  0.3345E+01  0.3102E+01
 -15.838  0.3365E+01  0.3136E+01
 -15.828  0.3385E+01  0.3170E+01
 -15.818  0.3404E+01  0.3204E+01
 -15.808  0.3424E+01  0.3238E+01
 -15.798  0.3443E+01  0.3273E+01
 -15.788  0.3463E+01  0.3307E+01
 -15.778  0.3482E+01  0.3342E+01
 -15.768  0.3501E+01  0.3377E+01
 -15.758  0.3521E+01  0.3412E+01
 -15.748  0.3540E+01  0.3448E+01
 -15.738  0.3559E+01  0.3483E+01
 -15.728  0.3578E+01  0.3519E+01
 -15.718  0.3597E+01  0.3555E+01
 -15.708  0.3616E+01  0.3591E+01
 -15.698  0.3635E+01  0.3627E+01
 -15.688  0.3654E+01  0.3664E+01
 -15.678  0.3673E+01  0.3701E+01
 -15.668  0.3692E+01  0.3738E+01
 -15.658  0.3710E+01  0.3775E+01
 -15.648  0.3729E+01  0.3812E+01
 -15.638  0.3748E+01  0.3850E+01
 -15.628  0.3766E+01  0.3887E+01
 -15.618  0.3784E+01  0.3925E+01
 -15.608  0.3803E+01  0.3963E+01
 -15.598  0.3821E+01  0.4001E+01
 -15.588  0.3839E+01  0.4040E+01
 -15.578  0.3857E+01  0.4078E+01
 -15.568  0.3875E+01  0.4117E+01
 -15.558  0.3893E+01  0.4156E+01
 -15.548  0.3910E+01  0.4195E+01
 -15.538  0.3928E+01  0.4234E+01
 -15.528  0.3945E+01  0.4274E+01
 -15.518  0.3963E+01  0.4313E+01
 -15.508  0.3980E+01  0.4353E+01
 -15.498  0.3997E+01  0.4393E+01
 -15.488  0.4014E+01  0.4433E+01
 -15.478  0.4031E+01  0.4474E+01
 -15.468  0.4047E+01  0.4514E+01
 -15.458  0.4064E+01  0.4555E+01
 -15.448  0.4080E+01  0.4595E+01
 -15.438  0.4096E+01  0.4636E+01
 -15.428  0.4112E+01  0.4678E+01
 -15.418  0.4128E+01  0.4719E+01
 -15.408  0.4144E+01  0.4760E+01
 -15.398  0.4159E+01  0.4802E+01
 -15.388  0.4175E+01  0.4844E+01
 -15.378  0.4190E+01  0.4886E+01
 -15.368  0.4205E+01  0.4928E+01
 -15.358  0.4219E+01  0.4970E+01
 -15.348  0.4234E+01  0.5012E+01
 -15.338  0.4248E+01  0.5055E+01
 -15.328  0.4262E+01  0.5097E+01
 -15.318  0.4276E+01  0.5140E+01
 -15.308  0.4289E+01  0.5183E+01
 -15.298  0.4303E+01  0.5226E+01
 -15.288  0.4316E+01  0.5269E+01
 -15.278  0.4329E+01  0.5312E+01
 -15.268  0.4341E+01  0.5356E+01
 -15.258  0.4354E+01  0.5399E+01
 -15.248  0.4366E+01  0.5443E+01
 -15.238  0.4377E+01  0.5487E+01
 -15.228  0.4389E+01  0.5531E+01
 -15.218  0.4400E+01  0.5575E+01
 -15.208  0.4411E+01  0.5619E+01
 -15.198  0.4422E+01  0.5663E+01
 -15.188  0.4432E+01  0.5707E+01
 -15.178  0.4442E+01  0.5752E+01
 -15.168  0.4452E+01  0.5796E+01
 -15.158  0.4461E+01  0.5841E+01
 -15.148  0.4470E+01  0.5885E+01
 -15.138  0.4479E+01  0.5930E+01
 -15.128  0.4487E+01  0.5975E+01
 -15.118  0.4495E+01  0.6020E+01
 -15.108  0.4503E+01  0.6065E+01
 -15.098  0.4510E+01  0.6110E+01
 -15.088  0.4517E+01  0.6155E+01
 -15.078  0.4524E+01  0.6201E+01
 -15.068  0.4530E+01  0.6246E+01
 -15.058  0.4536E+01  0.6291E+01
 -15.048  0.4541E+01  0.6337E+01
 -15.038  0.4546E+01  0.6382E+01
 -15.028  0.4551E+01  0.6428E+01
 -15.018  0.4555E+01  0.6473E+01
 -15.008  0.4559E+01  0.6519E+01
 -14.998  0.4562E+01  0.6564E+01
 -14.988  0.4565E+01  0.6610E+01
 -14.978  0.4568E+01  0.6656E+01
 -14.968  0.4570E+01  0.6701E+01
 -14.958  0.4572E+01  0.6747E+01
 -14.948  0.4573E+01  0.6793E+01
 -14.938  0.4574E+01  0.6839E+01
 -14.928  0.4574E+01  0.6884E+01
 -14.918  0.4574E+01  0.6930E+01
 -14.908  0.4574E+01  0.6976E+01
 -14.898  0.4573E+01  0.7022E+01
 -14.888  0.4571E+01  0.7067E+01
 -14.878  0.4569E+01  0.7113E+01
 -14.868  0.4567E+01  0.7159E+01
 -14.858  0.4564E+01  0.7204E+01
 -14.848  0.4561E+01  0.7250E+01
 -14.838  0.4557E+01  0.7295E+01
 -14.828  0.4553E+01  0.7341E+01
 -14.818  0.4548E+01  0.7386E+01
 -14.808  0.4543E+01  0.7432E+01
 -14.798  0.4538E+01  0.7477E+01
 -14.788  0.4531E+01  0.7523E+01
 -14.778  0.4525E+01  0.7568E+01
 -14.768  0.4518E+01  0.7613E+01
 -14.758  0.4510E+01  0.7658E+01
 -14.748  0.4502E+01  0.7703E+01
 -14.738  0.4493E+01  0.7748E+01
 -14.728  0.4484E+01  0.7793E+01
 -14.718  0.4475E+01  0.7838E+01
 -14.708  0.4465E+01  0.7882E+01
 -14.698  0.4454E+01  0.7927E+01
 -14.688  0.4443E+01  0.7971E+01
 -14.678  0.4432E+01  0.8016E+01
 -14.668  0.4420E+01  0.8060E+01
 -14.658  0.4407E+01  0.8104E+01
 -14.648  0.4394E+01  0.8148E+01
 -14.638  0.4381E+01  0.8192E+01
 -14.628  0.4367E+01  0.8235E+01
 -14.618  0.4352E+01  0.8279E+01
 -14.608  0.4338E+01  0.8322E+01
 -14.598  0.4322E+01  0.8365E+01
 -14.588  0.4306E+01  0.8408E+01
 -14.578  0.4290E+01  0.8451E+01
 -14.568  0.4273E+01  0.8494E+01
 -14.558  0.4256E+01  0.8537E+01
 -14.548  0.4238E+01  0.8579E+01
 -14.538  0.4220E+01  0.8621E+01
 -14.528  0.4202E+01  0.8663E+01
 -14.518  0.4183E+01  0.8705E+01
 -14.508  0.4163E+01  0.8747E+01
 -14.498  0.4143E+01  0.8788E+01
 -14.488  0.4123E+01  0.8829E+01
 -14.478  0.4102E+01  0.8870E+01
 -14.468  0.4081E+01  0.8911E+01
 -14.458  0.4059E+01  0.8952E+01
 -14.448  0.4037E+01  0.8992E+01
 -14.438  0.4015E+01  0.9032E+01
 -14.428  0.3992E+01  0.9072E+01
 -14.418  0.3969E+01  0.9112E+01
 -14.408  0.3945E+01  0.9151E+01
 -14.398  0.3921E+01  0.9191E+01
 -14.388  0.3897E+01  0.9230E+01
 -14.378  0.3872E+01  0.9268E+01
 -14.368  0.3847E+01  0.9307E+01
 -14.358  0.3822E+01  0.9345E+01
 -14.348  0.3796E+01  0.9383E+01
 -14.338  0.3770E+01  0.9421E+01
 -14.328  0.3744E+01  0.9458E+01
 -14.318  0.3717E+01  0.9495E+01
 -14.308  0.3690E+01  0.9532E+01
 -14.298  0.3662E+01  0.9569E+01
 -14.288  0.3635E+01  0.9605E+01
 -14.278  0.3607E+01  0.9641E+01
 -14.268  0.3578E+01  0.9677E+01
 -14.258  0.3550E+01  0.9713E+01
 -14.248  0.3521E+01  0.9748E+01
 -14.238  0.3492E+01  0.9783E+01
 -14.228  0.3463E+01  0.9817E+01
 -14.218  0.3433E+01  0.9852E+01
 -14.208  0.3404E+01  0.9886E+01
 -14.198  0.3374E+01  0.9919E+01
 -14.188  0.3343E+01  0.9953E+01
 -14.178  0.3313E+01  0.9986E+01
 -14.168  0.3282E+01  0.1002E+02
 -14.158  0.3252E+01  0.1005E+02
 -14.148  0.3221E+01  0.1008E+02
 -14.138  0.3190E+01  0.1012E+02
 -14.128  0.3158E+01  0.1015E+02
 -14.118  0.3127E+01  0.1018E+02
 -14.108  0.3096E+01  0.1021E+02
 -14.098  0.3064E+01  0.1024E+02
 -14.088  0.3032E+01  0.1027E+02
 -14.078  0.3000E+01  0.1030E+02
 -14.068  0.2968E+01  0.1033E+02
 -14.058  0.2936E+01  0.1036E+02
 -14.048  0.2904E+01  0.1039E+02
 -14.038  0.2872E+01  0.1042E+02
 -14.028  0.2840E+01  0.1045E+02
 -14.018  0.2807E+01  0.1047E+02
 -14.008  0.2775E+01  0.1050E+02
