#  E (eV)   dos(E)     Int dos(E) EFermi =    7.984 eV
 -15.890  0.4636E-03  0.4636E-05
 -15.880  0.5079E-03  0.9714E-05
 -15.870  0.5562E-03  0.1528E-04
 -15.860  0.6088E-03  0.2136E-04
 -15.850  0.6662E-03  0.2803E-04
 -15.840  0.7286E-03  0.3531E-04
 -15.830  0.7966E-03  0.4328E-04
 -15.820  0.8706E-03  0.5198E-04
 -15.810  0.9510E-03  0.6149E-04
 -15.800  0.1038E-02  0.7188E-04
 -15.790  0.1133E-02  0.8321E-04
 -15.780  0.1237E-02  0.9558E-04
 -15.770  0.1349E-02  0.1091E-03
 -15.760  0.1470E-02  0.1238E-03
 -15.750  0.1602E-02  0.1398E-03
 -15.740  0.1745E-02  0.1572E-03
 -15.730  0.1900E-02  0.1762E-03
 -15.720  0.2068E-02  0.1969E-03
 -15.710  0.2249E-02  0.2194E-03
 -15.700  0.2446E-02  0.2439E-03
 -15.690  0.2659E-02  0.2704E-03
 -15.680  0.2889E-02  0.2993E-03
 -15.670  0.3137E-02  0.3307E-03
 -15.660  0.3406E-02  0.3648E-03
 -15.650  0.3696E-02  0.4017E-03
 -15.640  0.4009E-02  0.4418E-03
 -15.630  0.4347E-02  0.4853E-03
 -15.620  0.4712E-02  0.5324E-03
 -15.610  0.5105E-02  0.5835E-03
 -15.600  0.5528E-02  0.6387E-03
 -15.590  0.5984E-02  0.6986E-03
 -15.580  0.6475E-02  0.7633E-03
 -15.570  0.7004E-02  0.8334E-03
 -15.560  0.7572E-02  0.9091E-03
 -15.550  0.8184E-02  0.9909E-03
 -15.540  0.8841E-02  0.1079E-02
 -15.530  0.9547E-02  0.1175E-02
 -15.520  0.1030E-01  0.1278E-02
 -15.510  0.1112E-01  0.1389E-02
 -15.500  0.1199E-01  0.1509E-02
 -15.490  0.1293E-01  0.1638E-02
 -15.480  0.1393E-01  0.1778E-02
 -15.470  0.1501E-01  0.1928E-02
 -15.460  0.1616E-01  0.2089E-02
 -15.450  0.1739E-01  0.2263E-02
 -15.440  0.1871E-01  0.2450E-02
 -15.430  0.2012E-01  0.2651E-02
 -15.420  0.2163E-01  0.2868E-02
 -15.410  0.2324E-01  0.3100E-02
 -15.400  0.2497E-01  0.3350E-02
 -15.390  0.2681E-01  0.3618E-02
 -15.380  0.2877E-01  0.3906E-02
 -15.370  0.3086E-01  0.4214E-02
 -15.360  0.3310E-01  0.4545E-02
 -15.350  0.3548E-01  0.4900E-02
 -15.340  0.3801E-01  0.5280E-02
 -15.330  0.4071E-01  0.5687E-02
 -15.320  0.4359E-01  0.6123E-02
 -15.310  0.4665E-01  0.6590E-02
 -15.300  0.4990E-01  0.7089E-02
 -15.290  0.5336E-01  0.7622E-02
 -15.280  0.5704E-01  0.8193E-02
 -15.270  0.6094E-01  0.8802E-02
 -15.260  0.6509E-01  0.9453E-02
 -15.250  0.6949E-01  0.1015E-01
 -15.240  0.7415E-01  0.1089E-01
 -15.230  0.7910E-01  0.1168E-01
 -15.220  0.8434E-01  0.1252E-01
 -15.210  0.8990E-01  0.1342E-01
 -15.200  0.9578E-01  0.1438E-01
 -15.190  0.1020E+00  0.1540E-01
 -15.180  0.1086E+00  0.1649E-01
 -15.170  0.1156E+00  0.1764E-01
 -15.160  0.1229E+00  0.1887E-01
 -15.150  0.1307E+00  0.2018E-01
 -15.140  0.1389E+00  0.2157E-01
 -15.130  0.1476E+00  0.2304E-01
 -15.120  0.1567E+00  0.2461E-01
 -15.110  0.1664E+00  0.2627E-01
 -15.100  0.1766E+00  0.2804E-01
 -15.090  0.1873E+00  0.2991E-01
 -15.080  0.1986E+00  0.3190E-01
 -15.070  0.2104E+00  0.3400E-01
 -15.060  0.2230E+00  0.3623E-01
 -15.050  0.2361E+00  0.3859E-01
 -15.040  0.2499E+00  0.4109E-01
 -15.030  0.2645E+00  0.4374E-01
 -15.020  0.2798E+00  0.4654E-01
 -15.010  0.2958E+00  0.4949E-01
 -15.000  0.3126E+00  0.5262E-01
 -14.990  0.3303E+00  0.5592E-01
 -14.980  0.3488E+00  0.5941E-01
 -14.970  0.3682E+00  0.6309E-01
 -14.960  0.3885E+00  0.6698E-01
 -14.950  0.4098E+00  0.7108E-01
 -14.940  0.4321E+00  0.7540E-01
 -14.930  0.4554E+00  0.7995E-01
 -14.920  0.4798E+00  0.8475E-01
 -14.910  0.5053E+00  0.8980E-01
 -14.900  0.5319E+00  0.9512E-01
 -14.890  0.5597E+00  0.1007E+00
 -14.880  0.5887E+00  0.1066E+00
 -14.870  0.6190E+00  0.1128E+00
 -14.860  0.6506E+00  0.1193E+00
 -14.850  0.6835E+00  0.1261E+00
 -14.840  0.7178E+00  0.1333E+00
 -14.830  0.7536E+00  0.1408E+00
 -14.820  0.7907E+00  0.1488E+00
 -14.810  0.8295E+00  0.1571E+00
 -14.800  0.8697E+00  0.1657E+00
 -14.790  0.9116E+00  0.1749E+00
 -14.780  0.9550E+00  0.1844E+00
 -14.770  0.1000E+01  0.1944E+00
 -14.760  0.1047E+01  0.2049E+00
 -14.750  0.1096E+01  0.2158E+00
 -14.740  0.1146E+01  0.2273E+00
 -14.730  0.1199E+01  0.2393E+00
 -14.720  0.1253E+01  0.2518E+00
 -14.710  0.1309E+01  0.2649E+00
 -14.700  0.1367E+01  0.2786E+00
 -14.690  0.1427E+01  0.2928E+00
 -14.680  0.1489E+01  0.3077E+00
 -14.670  0.1554E+01  0.3233E+00
 -14.660  0.1620E+01  0.3395E+00
 -14.650  0.1689E+01  0.3564E+00
 -14.640  0.1760E+01  0.3740E+00
 -14.630  0.1833E+01  0.3923E+00
 -14.620  0.1908E+01  0.4114E+00
 -14.610  0.1986E+01  0.4312E+00
 -14.600  0.2066E+01  0.4519E+00
 -14.590  0.2148E+01  0.4734E+00
 -14.580  0.2233E+01  0.4957E+00
 -14.570  0.2321E+01  0.5189E+00
 -14.560  0.2410E+01  0.5430E+00
 -14.550  0.2503E+01  0.5680E+00
 -14.540  0.2598E+01  0.5940E+00
 -14.530  0.2695E+01  0.6210E+00
 -14.520  0.2795E+01  0.6489E+00
 -14.510  0.2897E+01  0.6779E+00
 -14.500  0.3003E+01  0.7079E+00
 -14.490  0.3110E+01  0.7390E+00
 -14.480  0.3221E+01  0.7712E+00
 -14.470  0.3334E+01  0.8046E+00
 -14.460  0.3449E+01  0.8391E+00
 -14.450  0.3568E+01  0.8747E+00
 -14.440  0.3688E+01  0.9116E+00
 -14.430  0.3812E+01  0.9497E+00
 -14.420  0.3938E+01  0.9891E+00
 -14.410  0.4067E+01  0.1030E+01
 -14.400  0.4198E+01  0.1072E+01
 -14.390  0.4332E+01  0.1115E+01
 -14.380  0.4468E+01  0.1160E+01
 -14.370  0.4607E+01  0.1206E+01
 -14.360  0.4749E+01  0.1253E+01
 -14.350  0.4892E+01  0.1302E+01
 -14.340  0.5039E+01  0.1353E+01
 -14.330  0.5187E+01  0.1405E+01
 -14.320  0.5338E+01  0.1458E+01
 -14.310  0.5492E+01  0.1513E+01
 -14.300  0.5647E+01  0.1569E+01
 -14.290  0.5805E+01  0.1627E+01
 -14.280  0.5965E+01  0.1687E+01
 -14.270  0.6127E+01  0.1748E+01
 -14.260  0.6290E+01  0.1811E+01
 -14.250  0.6456E+01  0.1876E+01
 -14.240  0.6624E+01  0.1942E+01
 -14.230  0.6793E+01  0.2010E+01
 -14.220  0.6964E+01  0.2080E+01
 -14.210  0.7137E+01  0.2151E+01
 -14.200  0.7311E+01  0.2224E+01
 -14.190  0.7486E+01  0.2299E+01
 -14.180  0.7663E+01  0.2375E+01
 -14.170  0.7841E+01  0.2454E+01
 -14.160  0.8020E+01  0.2534E+01
 -14.150  0.8200E+01  0.2616E+01
 -14.140  0.8380E+01  0.2700E+01
 -14.130  0.8562E+01  0.2786E+01
 -14.120  0.8744E+01  0.2873E+01
 -14.110  0.8927E+01  0.2962E+01
 -14.100  0.9109E+01  0.3053E+01
 -14.090  0.9293E+01  0.3146E+01
 -14.080  0.9476E+01  0.3241E+01
 -14.070  0.9659E+01  0.3338E+01
 -14.060  0.9842E+01  0.3436E+01
 -14.050  0.1002E+02  0.3536E+01
 -14.040  0.1021E+02  0.3638E+01
 -14.030  0.1039E+02  0.3742E+01
 -14.020  0.1057E+02  0.3848E+01
 -14.010  0.1075E+02  0.3955E+01
 -14.000  0.1093E+02  0.4065E+01
 -13.990  0.1110E+02  0.4176E+01
 -13.980  0.1128E+02  0.4288E+01
 -13.970  0.1146E+02  0.4403E+01
 -13.960  0.1163E+02  0.4519E+01
 -13.950  0.1180E+02  0.4637E+01
 -13.940  0.1197E+02  0.4757E+01
 -13.930  0.1213E+02  0.4878E+01
 -13.920  0.1230E+02  0.5001E+01
 -13.910  0.1246E+02  0.5126E+01
 -13.900  0.1262E+02  0.5252E+01
 -13.890  0.1278E+02  0.5380E+01
 -13.880  0.1293E+02  0.5509E+01
 -13.870  0.1308E+02  0.5640E+01
 -13.860  0.1323E+02  0.5772E+01
 -13.850  0.1337E+02  0.5906E+01
 -13.840  0.1351E+02  0.6041E+01
 -13.830  0.1365E+02  0.6178E+01
 -13.820  0.1378E+02  0.6315E+01
 -13.810  0.1391E+02  0.6455E+01
 -13.800  0.1404E+02  0.6595E+01
 -13.790  0.1416E+02  0.6737E+01
 -13.780  0.1427E+02  0.6879E+01
 -13.770  0.1438E+02  0.7023E+01
 -13.760  0.1449E+02  0.7168E+01
 -13.750  0.1459E+02  0.7314E+01
 -13.740  0.1469E+02  0.7461E+01
 -13.730  0.1478E+02  0.7609E+01
 -13.720  0.1487E+02  0.7757E+01
 -13.710  0.1495E+02  0.7907E+01
 -13.700  0.1503E+02  0.8057E+01
 -13.690  0.1510E+02  0.8208E+01
 -13.680  0.1517E+02  0.8360E+01
 -13.670  0.1523E+02  0.8512E+01
 -13.660  0.1529E+02  0.8665E+01
 -13.650  0.1534E+02  0.8819E+01
 -13.640  0.1538E+02  0.8972E+01
 -13.630  0.1542E+02  0.9127E+01
 -13.620  0.1545E+02  0.9281E+01
 -13.610  0.1548E+02  0.9436E+01
 -13.600  0.1550E+02  0.9591E+01
 -13.590  0.1552E+02  0.9746E+01
 -13.580  0.1553E+02  0.9902E+01
 -13.570  0.1553E+02  0.1006E+02
 -13.560  0.1553E+02  0.1021E+02
 -13.550  0.1552E+02  0.1037E+02
 -13.540  0.1551E+02  0.1052E+02
 -13.530  0.1549E+02  0.1068E+02
 -13.520  0.1547E+02  0.1083E+02
 -13.510  0.1543E+02  0.1099E+02
 -13.500  0.1540E+02  0.1114E+02
 -13.490  0.1536E+02  0.1129E+02
 -13.480  0.1531E+02  0.1145E+02
 -13.470  0.1525E+02  0.1160E+02
 -13.460  0.1520E+02  0.1175E+02
 -13.450  0.1513E+02  0.1190E+02
 -13.440  0.1506E+02  0.1205E+02
 -13.430  0.1499E+02  0.1220E+02
 -13.420  0.1490E+02  0.1235E+02
 -13.410  0.1482E+02  0.1250E+02
 -13.400  0.1473E+02  0.1265E+02
 -13.390  0.1463E+02  0.1279E+02
 -13.380  0.1453E+02  0.1294E+02
 -13.370  0.1443E+02  0.1308E+02
 -13.360  0.1432E+02  0.1323E+02
 -13.350  0.1420E+02  0.1337E+02
 -13.340  0.1408E+02  0.1351E+02
 -13.330  0.1396E+02  0.1365E+02
 -13.320  0.1383E+02  0.1379E+02
 -13.310  0.1370E+02  0.1392E+02
 -13.300  0.1356E+02  0.1406E+02
 -13.290  0.1342E+02  0.1419E+02
 -13.280  0.1328E+02  0.1433E+02
 -13.270  0.1314E+02  0.1446E+02
 -13.260  0.1299E+02  0.1459E+02
 -13.250  0.1283E+02  0.1472E+02
 -13.240  0.1268E+02  0.1484E+02
 -13.230  0.1252E+02  0.1497E+02
 -13.220  0.1236E+02  0.1509E+02
 -13.210  0.1219E+02  0.1521E+02
 -13.200  0.1203E+02  0.1533E+02
 -13.190  0.1186E+02  0.1545E+02
 -13.180  0.1169E+02  0.1557E+02
 -13.170  0.1152E+02  0.1569E+02
 -13.160  0.1134E+02  0.1580E+02
 -13.150  0.1117E+02  0.1591E+02
 -13.140  0.1099E+02  0.1602E+02
 -13.130  0.1081E+02  0.1613E+02
 -13.120  0.1063E+02  0.1623E+02
 -13.110  0.1045E+02  0.1634E+02
 -13.100  0.1027E+02  0.1644E+02
 -13.090  0.1008E+02  0.1654E+02
 -13.080  0.9902E+01  0.1664E+02
 -13.070  0.9718E+01  0.1674E+02
 -13.060  0.9535E+01  0.1683E+02
 -13.050  0.9351E+01  0.1693E+02
 -13.040  0.9168E+01  0.1702E+02
 -13.030  0.8984E+01  0.1711E+02
 -13.020  0.8801E+01  0.1720E+02
 -13.010  0.8618E+01  0.1728E+02
 -13.000  0.8436E+01  0.1737E+02
 -12.990  0.8254E+01  0.1745E+02
 -12.980  0.8074E+01  0.1753E+02
 -12.970  0.7894E+01  0.1761E+02
 -12.960  0.7715E+01  0.1769E+02
 -12.950  0.7537E+01  0.1776E+02
 -12.940  0.7361E+01  0.1784E+02
 -12.930  0.7186E+01  0.1791E+02
 -12.920  0.7013E+01  0.1798E+02
 -12.910  0.6841E+01  0.1805E+02
 -12.900  0.6670E+01  0.1811E+02
 -12.890  0.6502E+01  0.1818E+02
 -12.880  0.6335E+01  0.1824E+02
 -12.870  0.6170E+01  0.1830E+02
 -12.860  0.6007E+01  0.1836E+02
 -12.850  0.5846E+01  0.1842E+02
 -12.840  0.5687E+01  0.1848E+02
 -12.830  0.5531E+01  0.1853E+02
 -12.820  0.5376E+01  0.1859E+02
 -12.810  0.5224E+01  0.1864E+02
 -12.800  0.5075E+01  0.1869E+02
 -12.790  0.4927E+01  0.1874E+02
 -12.780  0.4782E+01  0.1879E+02
 -12.770  0.4640E+01  0.1883E+02
 -12.760  0.4500E+01  0.1888E+02
 -12.750  0.4362E+01  0.1892E+02
 -12.740  0.4227E+01  0.1897E+02
 -12.730  0.4095E+01  0.1901E+02
 -12.720  0.3965E+01  0.1905E+02
 -12.710  0.3838E+01  0.1908E+02
 -12.700  0.3714E+01  0.1912E+02
 -12.690  0.3592E+01  0.1916E+02
 -12.680  0.3473E+01  0.1919E+02
 -12.670  0.3356E+01  0.1923E+02
 -12.660  0.3242E+01  0.1926E+02
 -12.650  0.3131E+01  0.1929E+02
 -12.640  0.3022E+01  0.1932E+02
 -12.630  0.2916E+01  0.1935E+02
 -12.620  0.2813E+01  0.1938E+02
 -12.610  0.2712E+01  0.1940E+02
 -12.600  0.2614E+01  0.1943E+02
 -12.590  0.2518E+01  0.1946E+02
 -12.580  0.2425E+01  0.1948E+02
 -12.570  0.2335E+01  0.1950E+02
 -12.560  0.2246E+01  0.1953E+02
 -12.550  0.2161E+01  0.1955E+02
 -12.540  0.2078E+01  0.1957E+02
 -12.530  0.1997E+01  0.1959E+02
 -12.520  0.1919E+01  0.1961E+02
 -12.510  0.1843E+01  0.1963E+02
 -12.500  0.1769E+01  0.1964E+02
 -12.490  0.1697E+01  0.1966E+02
 -12.480  0.1628E+01  0.1968E+02
 -12.470  0.1561E+01  0.1969E+02
 -12.460  0.1497E+01  0.1971E+02
 -12.450  0.1434E+01  0.1972E+02
 -12.440  0.1373E+01  0.1973E+02
 -12.430  0.1315E+01  0.1975E+02
 -12.420  0.1258E+01  0.1976E+02
 -12.410  0.1203E+01  0.1977E+02
 -12.400  0.1151E+01  0.1978E+02
 -12.390  0.1100E+01  0.1979E+02
 -12.380  0.1051E+01  0.1981E+02
 -12.370  0.1004E+01  0.1982E+02
 -12.360  0.9583E+00  0.1983E+02
 -12.350  0.9145E+00  0.1983E+02
 -12.340  0.8724E+00  0.1984E+02
 -12.330  0.8319E+00  0.1985E+02
 -12.320  0.7929E+00  0.1986E+02
 -12.310  0.7555E+00  0.1987E+02
 -12.300  0.7195E+00  0.1987E+02
 -12.290  0.6850E+00  0.1988E+02
 -12.280  0.6519E+00  0.1989E+02
 -12.270  0.6201E+00  0.1989E+02
 -12.260  0.5897E+00  0.1990E+02
 -12.250  0.5605E+00  0.1991E+02
 -12.240  0.5326E+00  0.1991E+02
 -12.230  0.5058E+00  0.1992E+02
 -12.220  0.4802E+00  0.1992E+02
 -12.210  0.4557E+00  0.1992E+02
 -12.200  0.4323E+00  0.1993E+02
 -12.190  0.4099E+00  0.1993E+02
 -12.180  0.3885E+00  0.1994E+02
 -12.170  0.3681E+00  0.1994E+02
 -12.160  0.3486E+00  0.1994E+02
 -12.150  0.3301E+00  0.1995E+02
 -12.140  0.3124E+00  0.1995E+02
 -12.130  0.2955E+00  0.1995E+02
 -12.120  0.2794E+00  0.1996E+02
 -12.110  0.2641E+00  0.1996E+02
 -12.100  0.2495E+00  0.1996E+02
 -12.090  0.2356E+00  0.1996E+02
 -12.080  0.2224E+00  0.1997E+02
 -12.070  0.2099E+00  0.1997E+02
 -12.060  0.1980E+00  0.1997E+02
 -12.050  0.1867E+00  0.1997E+02
 -12.040  0.1760E+00  0.1997E+02
 -12.030  0.1658E+00  0.1998E+02
 -12.020  0.1561E+00  0.1998E+02
 -12.010  0.1470E+00  0.1998E+02
 -12.000  0.1383E+00  0.1998E+02
 -11.990  0.1301E+00  0.1998E+02
 -11.980  0.1223E+00  0.1998E+02
 -11.970  0.1150E+00  0.1998E+02
 -11.960  0.1080E+00  0.1998E+02
 -11.950  0.1014E+00  0.1999E+02
 -11.940  0.9521E-01  0.1999E+02
 -11.930  0.8934E-01  0.1999E+02
 -11.920  0.8380E-01  0.1999E+02
 -11.910  0.7856E-01  0.1999E+02
 -11.900  0.7363E-01  0.1999E+02
 -11.890  0.6898E-01  0.1999E+02
 -11.880  0.6459E-01  0.1999E+02
 -11.870  0.6046E-01  0.1999E+02
 -11.860  0.5657E-01  0.1999E+02
 -11.850  0.5291E-01  0.1999E+02
 -11.840  0.4946E-01  0.1999E+02
 -11.830  0.4622E-01  0.1999E+02
 -11.820  0.4318E-01  0.1999E+02
 -11.810  0.4032E-01  0.1999E+02
 -11.800  0.3763E-01  0.2000E+02
 -11.790  0.3511E-01  0.2000E+02
 -11.780  0.3275E-01  0.2000E+02
 -11.770  0.3053E-01  0.2000E+02
 -11.760  0.2845E-01  0.2000E+02
 -11.750  0.2650E-01  0.2000E+02
 -11.740  0.2467E-01  0.2000E+02
 -11.730  0.2296E-01  0.2000E+02
 -11.720  0.2136E-01  0.2000E+02
 -11.710  0.1986E-01  0.2000E+02
 -11.700  0.1846E-01  0.2000E+02
 -11.690  0.1716E-01  0.2000E+02
 -11.680  0.1594E-01  0.2000E+02
 -11.670  0.1479E-01  0.2000E+02
 -11.660  0.1373E-01  0.2000E+02
 -11.650  0.1274E-01  0.2000E+02
 -11.640  0.1181E-01  0.2000E+02
 -11.630  0.1095E-01  0.2000E+02
 -11.620  0.1014E-01  0.2000E+02
 -11.610  0.9393E-02  0.2000E+02
 -11.600  0.8695E-02  0.2000E+02
 -11.590  0.8047E-02  0.2000E+02
 -11.580  0.7443E-02  0.2000E+02
 -11.570  0.6882E-02  0.2000E+02
 -11.560  0.6360E-02  0.2000E+02
 -11.550  0.5876E-02  0.2000E+02
 -11.540  0.5426E-02  0.2000E+02
 -11.530  0.5009E-02  0.2000E+02
 -11.520  0.4622E-02  0.2000E+02
 -11.510  0.4262E-02  0.2000E+02
 -11.500  0.3930E-02  0.2000E+02
 -11.490  0.3621E-02  0.2000E+02
 -11.480  0.3336E-02  0.2000E+02
 -11.470  0.3072E-02  0.2000E+02
 -11.460  0.2827E-02  0.2000E+02
 -11.450  0.2601E-02  0.2000E+02
 -11.440  0.2392E-02  0.2000E+02
 -11.430  0.2199E-02  0.2000E+02
 -11.420  0.2021E-02  0.2000E+02
 -11.410  0.1856E-02  0.2000E+02
 -11.400  0.1704E-02  0.2000E+02
 -11.390  0.1564E-02  0.2000E+02
 -11.380  0.1435E-02  0.2000E+02
 -11.370  0.1316E-02  0.2000E+02
 -11.360  0.1206E-02  0.2000E+02
 -11.350  0.1105E-02  0.2000E+02
 -11.340  0.1012E-02  0.2000E+02
 -11.330  0.9263E-03  0.2000E+02
 -11.320  0.8477E-03  0.2000E+02
 -11.310  0.7754E-03  0.2000E+02
 -11.300  0.7089E-03  0.2000E+02
 -11.290  0.6479E-03  0.2000E+02
 -11.280  0.5919E-03  0.2000E+02
 -11.270  0.5405E-03  0.2000E+02
 -11.260  0.4934E-03  0.2000E+02
 -11.250  0.4502E-03  0.2000E+02
 -11.240  0.4106E-03  0.2000E+02
 -11.230  0.3743E-03  0.2000E+02
 -11.220  0.3411E-03  0.2000E+02
 -11.210  0.3107E-03  0.2000E+02
 -11.200  0.2829E-03  0.2000E+02
 -11.190  0.2575E-03  0.2000E+02
 -11.180  0.2343E-03  0.2000E+02
 -11.170  0.2130E-03  0.2000E+02
 -11.160  0.1937E-03  0.2000E+02
 -11.150  0.1760E-03  0.2000E+02
 -11.140  0.1598E-03  0.2000E+02
 -11.130  0.1451E-03  0.2000E+02
 -11.120  0.1317E-03  0.2000E+02
 -11.110  0.1194E-03  0.2000E+02
 -11.100  0.1083E-03  0.2000E+02
 -11.090  0.9816E-04  0.2000E+02
 -11.080  0.8893E-04  0.2000E+02
 -11.070  0.8053E-04  0.2000E+02
 -11.060  0.7290E-04  0.2000E+02
 -11.050  0.6596E-04  0.2000E+02
 -11.040  0.5966E-04  0.2000E+02
 -11.030  0.5394E-04  0.2000E+02
 -11.020  0.4874E-04  0.2000E+02
 -11.010  0.4403E-04  0.2000E+02
 -11.000  0.3976E-04  0.2000E+02
 -10.990  0.3589E-04  0.2000E+02
 -10.980  0.3238E-04  0.2000E+02
 -10.970  0.2920E-04  0.2000E+02
 -10.960  0.2632E-04  0.2000E+02
 -10.950  0.2371E-04  0.2000E+02
 -10.940  0.2136E-04  0.2000E+02
 -10.930  0.1923E-04  0.2000E+02
 -10.920  0.1731E-04  0.2000E+02
 -10.910  0.1557E-04  0.2000E+02
 -10.900  0.1400E-04  0.2000E+02
 -10.890  0.1258E-04  0.2000E+02
 -10.880  0.1130E-04  0.2000E+02
 -10.870  0.1015E-04  0.2000E+02
 -10.860  0.9112E-05  0.2000E+02
 -10.850  0.8176E-05  0.2000E+02
 -10.840  0.7333E-05  0.2000E+02
 -10.830  0.6574E-05  0.2000E+02
 -10.820  0.5891E-05  0.2000E+02
 -10.810  0.5277E-05  0.2000E+02
 -10.800  0.4725E-05  0.2000E+02
 -10.790  0.4229E-05  0.2000E+02
 -10.780  0.3784E-05  0.2000E+02
 -10.770  0.3384E-05  0.2000E+02
 -10.760  0.3025E-05  0.2000E+02
 -10.750  0.2703E-05  0.2000E+02
 -10.740  0.2414E-05  0.2000E+02
 -10.730  0.2155E-05  0.2000E+02
 -10.720  0.1923E-05  0.2000E+02
 -10.710  0.1715E-05  0.2000E+02
 -10.700  0.1530E-05  0.2000E+02
 -10.690  0.1363E-05  0.2000E+02
 -10.680  0.1214E-05  0.2000E+02
 -10.670  0.1081E-05  0.2000E+02
 -10.660  0.9627E-06  0.2000E+02
 -10.650  0.8566E-06  0.2000E+02
 -10.640  0.7618E-06  0.2000E+02
 -10.630  0.6773E-06  0.2000E+02
 -10.620  0.6018E-06  0.2000E+02
 -10.610  0.5346E-06  0.2000E+02
 -10.600  0.4746E-06  0.2000E+02
 -10.590  0.4213E-06  0.2000E+02
 -10.580  0.3737E-06  0.2000E+02
 -10.570  0.3314E-06  0.2000E+02
 -10.560  0.2937E-06  0.2000E+02
 -10.550  0.2603E-06  0.2000E+02
 -10.540  0.2305E-06  0.2000E+02
 -10.530  0.2041E-06  0.2000E+02
 -10.520  0.1806E-06  0.2000E+02
 -10.510  0.1597E-06  0.2000E+02
 -10.500  0.1412E-06  0.2000E+02
 -10.490  0.1248E-06  0.2000E+02
 -10.480  0.1102E-06  0.2000E+02
 -10.470  0.9735E-07  0.2000E+02
 -10.460  0.8592E-07  0.2000E+02
 -10.450  0.7581E-07  0.2000E+02
 -10.440  0.6686E-07  0.2000E+02
 -10.430  0.5894E-07  0.2000E+02
 -10.420  0.5193E-07  0.2000E+02
 -10.410  0.4574E-07  0.2000E+02
 -10.400  0.4027E-07  0.2000E+02
 -10.390  0.3544E-07  0.2000E+02
 -10.380  0.3118E-07  0.2000E+02
 -10.370  0.2741E-07  0.2000E+02
 -10.360  0.2409E-07  0.2000E+02
 -10.350  0.2117E-07  0.2000E+02
 -10.340  0.1859E-07  0.2000E+02
 -10.330  0.1632E-07  0.2000E+02
 -10.320  0.1432E-07  0.2000E+02
 -10.310  0.1256E-07  0.2000E+02
 -10.300  0.1101E-07  0.2000E+02
 -10.290  0.9647E-08  0.2000E+02
 -10.280  0.8450E-08  0.2000E+02
 -10.270  0.7399E-08  0.2000E+02
 -10.260  0.6475E-08  0.2000E+02
 -10.250  0.5665E-08  0.2000E+02
 -10.240  0.4954E-08  0.2000E+02
 -10.230  0.4330E-08  0.2000E+02
 -10.220  0.3783E-08  0.2000E+02
 -10.210  0.3304E-08  0.2000E+02
 -10.200  0.2884E-08  0.2000E+02
 -10.190  0.2517E-08  0.2000E+02
 -10.180  0.2195E-08  0.2000E+02
 -10.170  0.1914E-08  0.2000E+02
 -10.160  0.1668E-08  0.2000E+02
 -10.150  0.1453E-08  0.2000E+02
 -10.140  0.1265E-08  0.2000E+02
 -10.130  0.1101E-08  0.2000E+02
 -10.120  0.9582E-09  0.2000E+02
 -10.110  0.8333E-09  0.2000E+02
 -10.100  0.7244E-09  0.2000E+02
 -10.090  0.6294E-09  0.2000E+02
 -10.080  0.5467E-09  0.2000E+02
 -10.070  0.4746E-09  0.2000E+02
 -10.060  0.4119E-09  0.2000E+02
 -10.050  0.3573E-09  0.2000E+02
 -10.040  0.3098E-09  0.2000E+02
 -10.030  0.2685E-09  0.2000E+02
 -10.020  0.2326E-09  0.2000E+02
 -10.010  0.2014E-09  0.2000E+02
 -10.000  0.1743E-09  0.2000E+02
  -9.990  0.1508E-09  0.2000E+02
  -9.980  0.1305E-09  0.2000E+02
  -9.970  0.1128E-09  0.2000E+02
  -9.960  0.9746E-10  0.2000E+02
  -9.950  0.8418E-10  0.2000E+02
  -9.940  0.7268E-10  0.2000E+02
  -9.930  0.6272E-10  0.2000E+02
  -9.920  0.5411E-10  0.2000E+02
  -9.910  0.4666E-10  0.2000E+02
  -9.900  0.4021E-10  0.2000E+02
  -9.890  0.3465E-10  0.2000E+02
  -9.880  0.2984E-10  0.2000E+02
  -9.870  0.2568E-10  0.2000E+02
  -9.860  0.2210E-10  0.2000E+02
