#  E (eV)   dos(E)     Int dos(E) EFermi =    7.984 eV
 -17.115  0.4121E-03  0.4121E-05
 -17.105  0.4363E-03  0.8484E-05
 -17.095  0.4619E-03  0.1310E-04
 -17.085  0.4889E-03  0.1799E-04
 -17.075  0.5174E-03  0.2317E-04
 -17.065  0.5475E-03  0.2864E-04
 -17.055  0.5792E-03  0.3443E-04
 -17.045  0.6127E-03  0.4056E-04
 -17.035  0.6480E-03  0.4704E-04
 -17.025  0.6852E-03  0.5389E-04
 -17.015  0.7244E-03  0.6114E-04
 -17.005  0.7658E-03  0.6879E-04
 -16.995  0.8094E-03  0.7689E-04
 -16.985  0.8553E-03  0.8544E-04
 -16.975  0.9037E-03  0.9448E-04
 -16.965  0.9546E-03  0.1040E-03
 -16.955  0.1008E-02  0.1141E-03
 -16.945  0.1065E-02  0.1248E-03
 -16.935  0.1124E-02  0.1360E-03
 -16.925  0.1187E-02  0.1479E-03
 -16.915  0.1253E-02  0.1604E-03
 -16.905  0.1322E-02  0.1736E-03
 -16.895  0.1395E-02  0.1876E-03
 -16.885  0.1472E-02  0.2023E-03
 -16.875  0.1553E-02  0.2178E-03
 -16.865  0.1638E-02  0.2342E-03
 -16.855  0.1727E-02  0.2515E-03
 -16.845  0.1821E-02  0.2697E-03
 -16.835  0.1919E-02  0.2889E-03
 -16.825  0.2023E-02  0.3091E-03
 -16.815  0.2132E-02  0.3304E-03
 -16.805  0.2246E-02  0.3529E-03
 -16.795  0.2366E-02  0.3765E-03
 -16.785  0.2492E-02  0.4015E-03
 -16.775  0.2625E-02  0.4277E-03
 -16.765  0.2764E-02  0.4553E-03
 -16.755  0.2909E-02  0.4844E-03
 -16.745  0.3063E-02  0.5151E-03
 -16.735  0.3223E-02  0.5473E-03
 -16.725  0.3392E-02  0.5812E-03
 -16.715  0.3568E-02  0.6169E-03
 -16.705  0.3753E-02  0.6544E-03
 -16.695  0.3948E-02  0.6939E-03
 -16.685  0.4151E-02  0.7354E-03
 -16.675  0.4365E-02  0.7791E-03
 -16.665  0.4588E-02  0.8249E-03
 -16.655  0.4823E-02  0.8732E-03
 -16.645  0.5068E-02  0.9238E-03
 -16.635  0.5325E-02  0.9771E-03
 -16.625  0.5594E-02  0.1033E-02
 -16.615  0.5876E-02  0.1092E-02
 -16.605  0.6171E-02  0.1154E-02
 -16.595  0.6480E-02  0.1218E-02
 -16.585  0.6803E-02  0.1286E-02
 -16.575  0.7141E-02  0.1358E-02
 -16.565  0.7495E-02  0.1433E-02
 -16.555  0.7865E-02  0.1511E-02
 -16.545  0.8252E-02  0.1594E-02
 -16.535  0.8656E-02  0.1680E-02
 -16.525  0.9079E-02  0.1771E-02
 -16.515  0.9521E-02  0.1866E-02
 -16.505  0.9982E-02  0.1966E-02
 -16.495  0.1046E-01  0.2071E-02
 -16.485  0.1097E-01  0.2181E-02
 -16.475  0.1149E-01  0.2296E-02
 -16.465  0.1204E-01  0.2416E-02
 -16.455  0.1262E-01  0.2542E-02
 -16.445  0.1322E-01  0.2674E-02
 -16.435  0.1384E-01  0.2813E-02
 -16.425  0.1450E-01  0.2958E-02
 -16.415  0.1518E-01  0.3109E-02
 -16.405  0.1589E-01  0.3268E-02
 -16.395  0.1663E-01  0.3435E-02
 -16.385  0.1740E-01  0.3609E-02
 -16.375  0.1820E-01  0.3791E-02
 -16.365  0.1904E-01  0.3981E-02
 -16.355  0.1992E-01  0.4180E-02
 -16.345  0.2083E-01  0.4389E-02
 -16.335  0.2178E-01  0.4606E-02
 -16.325  0.2277E-01  0.4834E-02
 -16.315  0.2380E-01  0.5072E-02
 -16.305  0.2487E-01  0.5321E-02
 -16.295  0.2599E-01  0.5581E-02
 -16.285  0.2715E-01  0.5852E-02
 -16.275  0.2836E-01  0.6136E-02
 -16.265  0.2962E-01  0.6432E-02
 -16.255  0.3094E-01  0.6741E-02
 -16.245  0.3230E-01  0.7064E-02
 -16.235  0.3372E-01  0.7402E-02
 -16.225  0.3519E-01  0.7754E-02
 -16.215  0.3672E-01  0.8121E-02
 -16.205  0.3832E-01  0.8504E-02
 -16.195  0.3997E-01  0.8904E-02
 -16.185  0.4170E-01  0.9321E-02
 -16.175  0.4348E-01  0.9756E-02
 -16.165  0.4534E-01  0.1021E-01
 -16.155  0.4727E-01  0.1068E-01
 -16.145  0.4927E-01  0.1117E-01
 -16.135  0.5135E-01  0.1169E-01
 -16.125  0.5351E-01  0.1222E-01
 -16.115  0.5575E-01  0.1278E-01
 -16.105  0.5808E-01  0.1336E-01
 -16.095  0.6049E-01  0.1397E-01
 -16.085  0.6299E-01  0.1460E-01
 -16.075  0.6559E-01  0.1525E-01
 -16.065  0.6828E-01  0.1593E-01
 -16.055  0.7107E-01  0.1665E-01
 -16.045  0.7396E-01  0.1739E-01
 -16.035  0.7696E-01  0.1815E-01
 -16.025  0.8006E-01  0.1896E-01
 -16.015  0.8328E-01  0.1979E-01
 -16.005  0.8661E-01  0.2065E-01
 -15.995  0.9007E-01  0.2156E-01
 -15.985  0.9364E-01  0.2249E-01
 -15.975  0.9734E-01  0.2346E-01
 -15.965  0.1012E+00  0.2448E-01
 -15.955  0.1051E+00  0.2553E-01
 -15.945  0.1092E+00  0.2662E-01
 -15.935  0.1135E+00  0.2775E-01
 -15.925  0.1179E+00  0.2893E-01
 -15.915  0.1224E+00  0.3016E-01
 -15.905  0.1271E+00  0.3143E-01
 -15.895  0.1319E+00  0.3275E-01
 -15.885  0.1370E+00  0.3412E-01
 -15.875  0.1421E+00  0.3554E-01
 -15.865  0.1475E+00  0.3701E-01
 -15.855  0.1530E+00  0.3854E-01
 -15.845  0.1587E+00  0.4013E-01
 -15.835  0.1646E+00  0.4178E-01
 -15.825  0.1707E+00  0.4348E-01
 -15.815  0.1770E+00  0.4525E-01
 -15.805  0.1835E+00  0.4709E-01
 -15.795  0.1902E+00  0.4899E-01
 -15.785  0.1971E+00  0.5096E-01
 -15.775  0.2042E+00  0.5300E-01
 -15.765  0.2116E+00  0.5512E-01
 -15.755  0.2191E+00  0.5731E-01
 -15.745  0.2270E+00  0.5958E-01
 -15.735  0.2350E+00  0.6193E-01
 -15.725  0.2433E+00  0.6436E-01
 -15.715  0.2519E+00  0.6688E-01
 -15.705  0.2607E+00  0.6949E-01
 -15.695  0.2697E+00  0.7219E-01
 -15.685  0.2791E+00  0.7498E-01
 -15.675  0.2887E+00  0.7787E-01
 -15.665  0.2986E+00  0.8085E-01
 -15.655  0.3088E+00  0.8394E-01
 -15.645  0.3193E+00  0.8713E-01
 -15.635  0.3301E+00  0.9043E-01
 -15.625  0.3412E+00  0.9385E-01
 -15.615  0.3526E+00  0.9737E-01
 -15.605  0.3644E+00  0.1010E+00
 -15.595  0.3764E+00  0.1048E+00
 -15.585  0.3889E+00  0.1087E+00
 -15.575  0.4016E+00  0.1127E+00
 -15.565  0.4147E+00  0.1168E+00
 -15.555  0.4282E+00  0.1211E+00
 -15.545  0.4420E+00  0.1255E+00
 -15.535  0.4562E+00  0.1301E+00
 -15.525  0.4708E+00  0.1348E+00
 -15.515  0.4858E+00  0.1397E+00
 -15.505  0.5012E+00  0.1447E+00
 -15.495  0.5169E+00  0.1498E+00
 -15.485  0.5331E+00  0.1552E+00
 -15.475  0.5497E+00  0.1607E+00
 -15.465  0.5668E+00  0.1663E+00
 -15.455  0.5842E+00  0.1722E+00
 -15.445  0.6021E+00  0.1782E+00
 -15.435  0.6205E+00  0.1844E+00
 -15.425  0.6393E+00  0.1908E+00
 -15.415  0.6586E+00  0.1974E+00
 -15.405  0.6783E+00  0.2042E+00
 -15.395  0.6985E+00  0.2112E+00
 -15.385  0.7192E+00  0.2183E+00
 -15.375  0.7404E+00  0.2258E+00
 -15.365  0.7621E+00  0.2334E+00
 -15.355  0.7843E+00  0.2412E+00
 -15.345  0.8071E+00  0.2493E+00
 -15.335  0.8303E+00  0.2576E+00
 -15.325  0.8541E+00  0.2661E+00
 -15.315  0.8785E+00  0.2749E+00
 -15.305  0.9033E+00  0.2840E+00
 -15.295  0.9288E+00  0.2932E+00
 -15.285  0.9548E+00  0.3028E+00
 -15.275  0.9813E+00  0.3126E+00
 -15.265  0.1008E+01  0.3227E+00
 -15.255  0.1036E+01  0.3330E+00
 -15.245  0.1064E+01  0.3437E+00
 -15.235  0.1093E+01  0.3546E+00
 -15.225  0.1123E+01  0.3659E+00
 -15.215  0.1153E+01  0.3774E+00
 -15.205  0.1184E+01  0.3892E+00
 -15.195  0.1215E+01  0.4014E+00
 -15.185  0.1247E+01  0.4138E+00
 -15.175  0.1280E+01  0.4266E+00
 -15.165  0.1313E+01  0.4398E+00
 -15.155  0.1347E+01  0.4532E+00
 -15.145  0.1382E+01  0.4671E+00
 -15.135  0.1417E+01  0.4812E+00
 -15.125  0.1453E+01  0.4958E+00
 -15.115  0.1489E+01  0.5106E+00
 -15.105  0.1527E+01  0.5259E+00
 -15.095  0.1565E+01  0.5416E+00
 -15.085  0.1603E+01  0.5576E+00
 -15.075  0.1642E+01  0.5740E+00
 -15.065  0.1682E+01  0.5908E+00
 -15.055  0.1723E+01  0.6081E+00
 -15.045  0.1765E+01  0.6257E+00
 -15.035  0.1807E+01  0.6438E+00
 -15.025  0.1849E+01  0.6623E+00
 -15.015  0.1893E+01  0.6812E+00
 -15.005  0.1937E+01  0.7006E+00
 -14.995  0.1982E+01  0.7204E+00
 -14.985  0.2028E+01  0.7407E+00
 -14.975  0.2074E+01  0.7614E+00
 -14.965  0.2121E+01  0.7826E+00
 -14.955  0.2169E+01  0.8043E+00
 -14.945  0.2218E+01  0.8265E+00
 -14.935  0.2267E+01  0.8492E+00
 -14.925  0.2317E+01  0.8723E+00
 -14.915  0.2368E+01  0.8960E+00
 -14.905  0.2419E+01  0.9202E+00
 -14.895  0.2471E+01  0.9449E+00
 -14.885  0.2524E+01  0.9702E+00
 -14.875  0.2578E+01  0.9959E+00
 -14.865  0.2632E+01  0.1022E+01
 -14.855  0.2687E+01  0.1049E+01
 -14.845  0.2743E+01  0.1077E+01
 -14.835  0.2799E+01  0.1105E+01
 -14.825  0.2856E+01  0.1133E+01
 -14.815  0.2914E+01  0.1162E+01
 -14.805  0.2973E+01  0.1192E+01
 -14.795  0.3032E+01  0.1222E+01
 -14.785  0.3092E+01  0.1253E+01
 -14.775  0.3152E+01  0.1285E+01
 -14.765  0.3213E+01  0.1317E+01
 -14.755  0.3275E+01  0.1350E+01
 -14.745  0.3338E+01  0.1383E+01
 -14.735  0.3401E+01  0.1417E+01
 -14.725  0.3465E+01  0.1452E+01
 -14.715  0.3529E+01  0.1487E+01
 -14.705  0.3595E+01  0.1523E+01
 -14.695  0.3660E+01  0.1559E+01
 -14.685  0.3727E+01  0.1597E+01
 -14.675  0.3794E+01  0.1635E+01
 -14.665  0.3861E+01  0.1673E+01
 -14.655  0.3929E+01  0.1713E+01
 -14.645  0.3998E+01  0.1753E+01
 -14.635  0.4067E+01  0.1793E+01
 -14.625  0.4137E+01  0.1835E+01
 -14.615  0.4207E+01  0.1877E+01
 -14.605  0.4278E+01  0.1919E+01
 -14.595  0.4349E+01  0.1963E+01
 -14.585  0.4421E+01  0.2007E+01
 -14.575  0.4493E+01  0.2052E+01
 -14.565  0.4565E+01  0.2098E+01
 -14.555  0.4638E+01  0.2144E+01
 -14.545  0.4712E+01  0.2191E+01
 -14.535  0.4786E+01  0.2239E+01
 -14.525  0.4860E+01  0.2288E+01
 -14.515  0.4934E+01  0.2337E+01
 -14.505  0.5009E+01  0.2387E+01
 -14.495  0.5085E+01  0.2438E+01
 -14.485  0.5160E+01  0.2490E+01
 -14.475  0.5236E+01  0.2542E+01
 -14.465  0.5312E+01  0.2595E+01
 -14.455  0.5388E+01  0.2649E+01
 -14.445  0.5465E+01  0.2704E+01
 -14.435  0.5542E+01  0.2759E+01
 -14.425  0.5619E+01  0.2815E+01
 -14.415  0.5696E+01  0.2872E+01
 -14.405  0.5773E+01  0.2930E+01
 -14.395  0.5850E+01  0.2988E+01
 -14.385  0.5928E+01  0.3048E+01
 -14.375  0.6005E+01  0.3108E+01
 -14.365  0.6083E+01  0.3169E+01
 -14.355  0.6160E+01  0.3230E+01
 -14.345  0.6238E+01  0.3293E+01
 -14.335  0.6315E+01  0.3356E+01
 -14.325  0.6393E+01  0.3420E+01
 -14.315  0.6470E+01  0.3484E+01
 -14.305  0.6547E+01  0.3550E+01
 -14.295  0.6624E+01  0.3616E+01
 -14.285  0.6701E+01  0.3683E+01
 -14.275  0.6778E+01  0.3751E+01
 -14.265  0.6854E+01  0.3819E+01
 -14.255  0.6931E+01  0.3889E+01
 -14.245  0.7007E+01  0.3959E+01
 -14.235  0.7082E+01  0.4030E+01
 -14.225  0.7158E+01  0.4101E+01
 -14.215  0.7233E+01  0.4173E+01
 -14.205  0.7307E+01  0.4247E+01
 -14.195  0.7381E+01  0.4320E+01
 -14.185  0.7455E+01  0.4395E+01
 -14.175  0.7528E+01  0.4470E+01
 -14.165  0.7601E+01  0.4546E+01
 -14.155  0.7673E+01  0.4623E+01
 -14.145  0.7745E+01  0.4700E+01
 -14.135  0.7816E+01  0.4779E+01
 -14.125  0.7887E+01  0.4857E+01
 -14.115  0.7957E+01  0.4937E+01
 -14.105  0.8026E+01  0.5017E+01
 -14.095  0.8094E+01  0.5098E+01
 -14.085  0.8162E+01  0.5180E+01
 -14.075  0.8229E+01  0.5262E+01
 -14.065  0.8295E+01  0.5345E+01
 -14.055  0.8361E+01  0.5429E+01
 -14.045  0.8426E+01  0.5513E+01
 -14.035  0.8489E+01  0.5598E+01
 -14.025  0.8552E+01  0.5683E+01
 -14.015  0.8614E+01  0.5769E+01
 -14.005  0.8675E+01  0.5856E+01
 -13.995  0.8735E+01  0.5944E+01
 -13.985  0.8794E+01  0.6031E+01
 -13.975  0.8852E+01  0.6120E+01
 -13.965  0.8909E+01  0.6209E+01
 -13.955  0.8965E+01  0.6299E+01
 -13.945  0.9020E+01  0.6389E+01
 -13.935  0.9074E+01  0.6480E+01
 -13.925  0.9126E+01  0.6571E+01
 -13.915  0.9178E+01  0.6663E+01
 -13.905  0.9228E+01  0.6755E+01
 -13.895  0.9277E+01  0.6848E+01
 -13.885  0.9325E+01  0.6941E+01
 -13.875  0.9371E+01  0.7035E+01
 -13.865  0.9417E+01  0.7129E+01
 -13.855  0.9461E+01  0.7224E+01
 -13.845  0.9503E+01  0.7319E+01
 -13.835  0.9545E+01  0.7414E+01
 -13.825  0.9584E+01  0.7510E+01
 -13.815  0.9623E+01  0.7606E+01
 -13.805  0.9660E+01  0.7703E+01
 -13.795  0.9696E+01  0.7800E+01
 -13.785  0.9730E+01  0.7897E+01
 -13.775  0.9763E+01  0.7995E+01
 -13.765  0.9795E+01  0.8093E+01
 -13.755  0.9825E+01  0.8191E+01
 -13.745  0.9853E+01  0.8289E+01
 -13.735  0.9880E+01  0.8388E+01
 -13.725  0.9906E+01  0.8487E+01
 -13.715  0.9930E+01  0.8586E+01
 -13.705  0.9952E+01  0.8686E+01
 -13.695  0.9973E+01  0.8786E+01
 -13.685  0.9992E+01  0.8886E+01
 -13.675  0.1001E+02  0.8986E+01
 -13.665  0.1003E+02  0.9086E+01
 -13.655  0.1004E+02  0.9186E+01
 -13.645  0.1005E+02  0.9287E+01
 -13.635  0.1007E+02  0.9388E+01
 -13.625  0.1008E+02  0.9488E+01
 -13.615  0.1008E+02  0.9589E+01
 -13.605  0.1009E+02  0.9690E+01
 -13.595  0.1009E+02  0.9791E+01
 -13.585  0.1010E+02  0.9892E+01
 -13.575  0.1010E+02  0.9993E+01
 -13.565  0.1010E+02  0.1009E+02
 -13.555  0.1010E+02  0.1020E+02
 -13.545  0.1010E+02  0.1030E+02
 -13.535  0.1009E+02  0.1040E+02
 -13.525  0.1008E+02  0.1050E+02
 -13.515  0.1008E+02  0.1060E+02
 -13.505  0.1007E+02  0.1070E+02
 -13.495  0.1006E+02  0.1080E+02
 -13.485  0.1004E+02  0.1090E+02
 -13.475  0.1003E+02  0.1100E+02
 -13.465  0.1001E+02  0.1110E+02
 -13.455  0.9996E+01  0.1120E+02
 -13.445  0.9977E+01  0.1130E+02
 -13.435  0.9956E+01  0.1140E+02
 -13.425  0.9934E+01  0.1150E+02
 -13.415  0.9910E+01  0.1160E+02
 -13.405  0.9885E+01  0.1170E+02
 -13.395  0.9858E+01  0.1180E+02
 -13.385  0.9830E+01  0.1189E+02
 -13.375  0.9800E+01  0.1199E+02
 -13.365  0.9769E+01  0.1209E+02
 -13.355  0.9736E+01  0.1219E+02
 -13.345  0.9702E+01  0.1228E+02
 -13.335  0.9667E+01  0.1238E+02
 -13.325  0.9630E+01  0.1248E+02
 -13.315  0.9592E+01  0.1257E+02
 -13.305  0.9552E+01  0.1267E+02
 -13.295  0.9511E+01  0.1276E+02
 -13.285  0.9468E+01  0.1286E+02
 -13.275  0.9425E+01  0.1295E+02
 -13.265  0.9380E+01  0.1305E+02
 -13.255  0.9333E+01  0.1314E+02
 -13.245  0.9286E+01  0.1323E+02
 -13.235  0.9237E+01  0.1332E+02
 -13.225  0.9187E+01  0.1342E+02
 -13.215  0.9136E+01  0.1351E+02
 -13.205  0.9083E+01  0.1360E+02
 -13.195  0.9030E+01  0.1369E+02
 -13.185  0.8975E+01  0.1378E+02
 -13.175  0.8919E+01  0.1387E+02
 -13.165  0.8862E+01  0.1396E+02
 -13.155  0.8805E+01  0.1404E+02
 -13.145  0.8746E+01  0.1413E+02
 -13.135  0.8686E+01  0.1422E+02
 -13.125  0.8625E+01  0.1431E+02
 -13.115  0.8563E+01  0.1439E+02
 -13.105  0.8500E+01  0.1448E+02
 -13.095  0.8437E+01  0.1456E+02
 -13.085  0.8372E+01  0.1464E+02
 -13.075  0.8307E+01  0.1473E+02
 -13.065  0.8241E+01  0.1481E+02
 -13.055  0.8174E+01  0.1489E+02
 -13.045  0.8106E+01  0.1497E+02
 -13.035  0.8038E+01  0.1505E+02
 -13.025  0.7968E+01  0.1513E+02
 -13.015  0.7899E+01  0.1521E+02
 -13.005  0.7828E+01  0.1529E+02
 -12.995  0.7757E+01  0.1537E+02
 -12.985  0.7686E+01  0.1544E+02
 -12.975  0.7613E+01  0.1552E+02
 -12.965  0.7541E+01  0.1560E+02
 -12.955  0.7467E+01  0.1567E+02
 -12.945  0.7394E+01  0.1574E+02
 -12.935  0.7320E+01  0.1582E+02
 -12.925  0.7245E+01  0.1589E+02
 -12.915  0.7170E+01  0.1596E+02
 -12.905  0.7095E+01  0.1603E+02
 -12.895  0.7019E+01  0.1610E+02
 -12.885  0.6943E+01  0.1617E+02
 -12.875  0.6867E+01  0.1624E+02
 -12.865  0.6790E+01  0.1631E+02
 -12.855  0.6714E+01  0.1638E+02
 -12.845  0.6637E+01  0.1644E+02
 -12.835  0.6560E+01  0.1651E+02
 -12.825  0.6482E+01  0.1657E+02
 -12.815  0.6405E+01  0.1664E+02
 -12.805  0.6328E+01  0.1670E+02
 -12.795  0.6250E+01  0.1676E+02
 -12.785  0.6172E+01  0.1682E+02
 -12.775  0.6095E+01  0.1689E+02
 -12.765  0.6017E+01  0.1695E+02
 -12.755  0.5940E+01  0.1700E+02
 -12.745  0.5862E+01  0.1706E+02
 -12.735  0.5785E+01  0.1712E+02
 -12.725  0.5708E+01  0.1718E+02
 -12.715  0.5631E+01  0.1723E+02
 -12.705  0.5554E+01  0.1729E+02
 -12.695  0.5477E+01  0.1734E+02
 -12.685  0.5400E+01  0.1740E+02
 -12.675  0.5324E+01  0.1745E+02
 -12.665  0.5247E+01  0.1750E+02
 -12.655  0.5172E+01  0.1756E+02
 -12.645  0.5096E+01  0.1761E+02
 -12.635  0.5021E+01  0.1766E+02
 -12.625  0.4945E+01  0.1771E+02
 -12.615  0.4871E+01  0.1776E+02
 -12.605  0.4796E+01  0.1780E+02
 -12.595  0.4723E+01  0.1785E+02
 -12.585  0.4649E+01  0.1790E+02
 -12.575  0.4576E+01  0.1794E+02
 -12.565  0.4503E+01  0.1799E+02
 -12.555  0.4431E+01  0.1803E+02
 -12.545  0.4359E+01  0.1808E+02
 -12.535  0.4288E+01  0.1812E+02
 -12.525  0.4217E+01  0.1816E+02
 -12.515  0.4146E+01  0.1820E+02
 -12.505  0.4077E+01  0.1824E+02
 -12.495  0.4007E+01  0.1828E+02
 -12.485  0.3939E+01  0.1832E+02
 -12.475  0.3870E+01  0.1836E+02
 -12.465  0.3803E+01  0.1840E+02
 -12.455  0.3736E+01  0.1844E+02
 -12.445  0.3669E+01  0.1847E+02
 -12.435  0.3603E+01  0.1851E+02
 -12.425  0.3538E+01  0.1855E+02
 -12.415  0.3474E+01  0.1858E+02
 -12.405  0.3410E+01  0.1861E+02
 -12.395  0.3346E+01  0.1865E+02
 -12.385  0.3283E+01  0.1868E+02
 -12.375  0.3221E+01  0.1871E+02
 -12.365  0.3160E+01  0.1874E+02
 -12.355  0.3099E+01  0.1877E+02
 -12.345  0.3039E+01  0.1881E+02
 -12.335  0.2980E+01  0.1884E+02
 -12.325  0.2921E+01  0.1886E+02
 -12.315  0.2863E+01  0.1889E+02
 -12.305  0.2806E+01  0.1892E+02
 -12.295  0.2750E+01  0.1895E+02
 -12.285  0.2694E+01  0.1898E+02
 -12.275  0.2639E+01  0.1900E+02
 -12.265  0.2584E+01  0.1903E+02
 -12.255  0.2530E+01  0.1905E+02
 -12.245  0.2477E+01  0.1908E+02
 -12.235  0.2425E+01  0.1910E+02
 -12.225  0.2374E+01  0.1913E+02
 -12.215  0.2323E+01  0.1915E+02
 -12.205  0.2273E+01  0.1917E+02
 -12.195  0.2223E+01  0.1919E+02
 -12.185  0.2174E+01  0.1922E+02
 -12.175  0.2127E+01  0.1924E+02
 -12.165  0.2079E+01  0.1926E+02
 -12.155  0.2033E+01  0.1928E+02
 -12.145  0.1987E+01  0.1930E+02
 -12.135  0.1942E+01  0.1932E+02
 -12.125  0.1898E+01  0.1934E+02
 -12.115  0.1854E+01  0.1935E+02
 -12.105  0.1811E+01  0.1937E+02
 -12.095  0.1769E+01  0.1939E+02
 -12.085  0.1727E+01  0.1941E+02
 -12.075  0.1687E+01  0.1942E+02
 -12.065  0.1646E+01  0.1944E+02
 -12.055  0.1607E+01  0.1946E+02
 -12.045  0.1568E+01  0.1947E+02
 -12.035  0.1530E+01  0.1949E+02
 -12.025  0.1493E+01  0.1950E+02
 -12.015  0.1456E+01  0.1952E+02
 -12.005  0.1420E+01  0.1953E+02
 -11.995  0.1385E+01  0.1955E+02
 -11.985  0.1350E+01  0.1956E+02
 -11.975  0.1316E+01  0.1957E+02
 -11.965  0.1283E+01  0.1959E+02
 -11.955  0.1250E+01  0.1960E+02
 -11.945  0.1218E+01  0.1961E+02
 -11.935  0.1186E+01  0.1962E+02
 -11.925  0.1156E+01  0.1963E+02
 -11.915  0.1125E+01  0.1964E+02
 -11.905  0.1096E+01  0.1966E+02
 -11.895  0.1067E+01  0.1967E+02
 -11.885  0.1038E+01  0.1968E+02
 -11.875  0.1011E+01  0.1969E+02
 -11.865  0.9834E+00  0.1970E+02
 -11.855  0.9568E+00  0.1971E+02
 -11.845  0.9307E+00  0.1972E+02
 -11.835  0.9052E+00  0.1972E+02
 -11.825  0.8803E+00  0.1973E+02
 -11.815  0.8559E+00  0.1974E+02
 -11.805  0.8320E+00  0.1975E+02
 -11.795  0.8087E+00  0.1976E+02
 -11.785  0.7859E+00  0.1977E+02
 -11.775  0.7636E+00  0.1977E+02
 -11.765  0.7419E+00  0.1978E+02
 -11.755  0.7206E+00  0.1979E+02
 -11.745  0.6999E+00  0.1980E+02
 -11.735  0.6796E+00  0.1980E+02
 -11.725  0.6598E+00  0.1981E+02
 -11.715  0.6405E+00  0.1982E+02
 -11.705  0.6216E+00  0.1982E+02
 -11.695  0.6032E+00  0.1983E+02
 -11.685  0.5853E+00  0.1983E+02
 -11.675  0.5677E+00  0.1984E+02
 -11.665  0.5507E+00  0.1984E+02
 -11.655  0.5340E+00  0.1985E+02
 -11.645  0.5178E+00  0.1986E+02
 -11.635  0.5020E+00  0.1986E+02
 -11.625  0.4866E+00  0.1986E+02
 -11.615  0.4716E+00  0.1987E+02
 -11.605  0.4569E+00  0.1987E+02
 -11.595  0.4427E+00  0.1988E+02
 -11.585  0.4288E+00  0.1988E+02
 -11.575  0.4153E+00  0.1989E+02
 -11.565  0.4022E+00  0.1989E+02
 -11.555  0.3894E+00  0.1990E+02
 -11.545  0.3770E+00  0.1990E+02
 -11.535  0.3649E+00  0.1990E+02
 -11.525  0.3531E+00  0.1991E+02
 -11.515  0.3416E+00  0.1991E+02
 -11.505  0.3305E+00  0.1991E+02
 -11.495  0.3197E+00  0.1992E+02
 -11.485  0.3092E+00  0.1992E+02
 -11.475  0.2989E+00  0.1992E+02
 -11.465  0.2890E+00  0.1992E+02
 -11.455  0.2794E+00  0.1993E+02
 -11.445  0.2700E+00  0.1993E+02
 -11.435  0.2609E+00  0.1993E+02
 -11.425  0.2521E+00  0.1994E+02
 -11.415  0.2435E+00  0.1994E+02
 -11.405  0.2352E+00  0.1994E+02
 -11.395  0.2271E+00  0.1994E+02
 -11.385  0.2193E+00  0.1994E+02
 -11.375  0.2117E+00  0.1995E+02
 -11.365  0.2044E+00  0.1995E+02
 -11.355  0.1972E+00  0.1995E+02
 -11.345  0.1903E+00  0.1995E+02
 -11.335  0.1836E+00  0.1995E+02
 -11.325  0.1771E+00  0.1996E+02
 -11.315  0.1708E+00  0.1996E+02
 -11.305  0.1647E+00  0.1996E+02
 -11.295  0.1588E+00  0.1996E+02
 -11.285  0.1531E+00  0.1996E+02
 -11.275  0.1475E+00  0.1996E+02
 -11.265  0.1422E+00  0.1997E+02
 -11.255  0.1370E+00  0.1997E+02
 -11.245  0.1320E+00  0.1997E+02
 -11.235  0.1271E+00  0.1997E+02
 -11.225  0.1224E+00  0.1997E+02
 -11.215  0.1179E+00  0.1997E+02
 -11.205  0.1135E+00  0.1997E+02
 -11.195  0.1092E+00  0.1997E+02
 -11.185  0.1051E+00  0.1998E+02
 -11.175  0.1011E+00  0.1998E+02
 -11.165  0.9731E-01  0.1998E+02
 -11.155  0.9361E-01  0.1998E+02
 -11.145  0.9003E-01  0.1998E+02
 -11.135  0.8658E-01  0.1998E+02
 -11.125  0.8324E-01  0.1998E+02
 -11.115  0.8002E-01  0.1998E+02
 -11.105  0.7691E-01  0.1998E+02
 -11.095  0.7391E-01  0.1998E+02
 -11.085  0.7102E-01  0.1998E+02
