#  E (eV)   dos(E)     Int dos(E) EFermi =   10.812 eV
 -12.034  0.2625E-03  0.2625E-05
 -12.024  0.3077E-03  0.5702E-05
 -12.014  0.3602E-03  0.9304E-05
 -12.004  0.4212E-03  0.1352E-04
 -11.994  0.4920E-03  0.1844E-04
 -11.984  0.5740E-03  0.2418E-04
 -11.974  0.6689E-03  0.3087E-04
 -11.964  0.7786E-03  0.3865E-04
 -11.954  0.9053E-03  0.4770E-04
 -11.944  0.1051E-02  0.5822E-04
 -11.934  0.1220E-02  0.7042E-04
 -11.924  0.1413E-02  0.8455E-04
 -11.914  0.1636E-02  0.1009E-03
 -11.904  0.1891E-02  0.1198E-03
 -11.894  0.2184E-02  0.1417E-03
 -11.884  0.2520E-02  0.1669E-03
 -11.874  0.2903E-02  0.1959E-03
 -11.864  0.3341E-02  0.2293E-03
 -11.854  0.3841E-02  0.2677E-03
 -11.844  0.4411E-02  0.3118E-03
 -11.834  0.5060E-02  0.3624E-03
 -11.824  0.5797E-02  0.4204E-03
 -11.814  0.6634E-02  0.4867E-03
 -11.804  0.7584E-02  0.5626E-03
 -11.794  0.8660E-02  0.6492E-03
 -11.784  0.9878E-02  0.7480E-03
 -11.774  0.1125E-01  0.8605E-03
 -11.764  0.1281E-01  0.9886E-03
 -11.754  0.1456E-01  0.1134E-02
 -11.744  0.1653E-01  0.1299E-02
 -11.734  0.1875E-01  0.1487E-02
 -11.724  0.2124E-01  0.1699E-02
 -11.714  0.2404E-01  0.1940E-02
 -11.704  0.2718E-01  0.2212E-02
 -11.694  0.3069E-01  0.2519E-02
 -11.684  0.3461E-01  0.2865E-02
 -11.674  0.3900E-01  0.3255E-02
 -11.664  0.4389E-01  0.3694E-02
 -11.654  0.4934E-01  0.4187E-02
 -11.644  0.5540E-01  0.4741E-02
 -11.634  0.6214E-01  0.5362E-02
 -11.624  0.6962E-01  0.6058E-02
 -11.614  0.7792E-01  0.6838E-02
 -11.604  0.8710E-01  0.7709E-02
 -11.594  0.9727E-01  0.8681E-02
 -11.584  0.1085E+00  0.9766E-02
 -11.574  0.1209E+00  0.1098E-01
 -11.564  0.1345E+00  0.1232E-01
 -11.554  0.1496E+00  0.1382E-01
 -11.544  0.1661E+00  0.1548E-01
 -11.534  0.1843E+00  0.1732E-01
 -11.524  0.2042E+00  0.1936E-01
 -11.514  0.2260E+00  0.2162E-01
 -11.504  0.2499E+00  0.2412E-01
 -11.494  0.2760E+00  0.2688E-01
 -11.484  0.3045E+00  0.2993E-01
 -11.474  0.3355E+00  0.3328E-01
 -11.464  0.3693E+00  0.3697E-01
 -11.454  0.4061E+00  0.4104E-01
 -11.444  0.4461E+00  0.4550E-01
 -11.434  0.4894E+00  0.5039E-01
 -11.424  0.5364E+00  0.5575E-01
 -11.414  0.5873E+00  0.6163E-01
 -11.404  0.6422E+00  0.6805E-01
 -11.394  0.7016E+00  0.7507E-01
 -11.384  0.7656E+00  0.8272E-01
 -11.374  0.8345E+00  0.9107E-01
 -11.364  0.9086E+00  0.1002E+00
 -11.354  0.9883E+00  0.1100E+00
 -11.344  0.1074E+01  0.1208E+00
 -11.334  0.1165E+01  0.1324E+00
 -11.324  0.1263E+01  0.1451E+00
 -11.314  0.1368E+01  0.1587E+00
 -11.304  0.1480E+01  0.1735E+00
 -11.294  0.1599E+01  0.1895E+00
 -11.284  0.1726E+01  0.2068E+00
 -11.274  0.1862E+01  0.2254E+00
 -11.264  0.2005E+01  0.2455E+00
 -11.254  0.2158E+01  0.2670E+00
 -11.244  0.2319E+01  0.2902E+00
 -11.234  0.2490E+01  0.3151E+00
 -11.224  0.2670E+01  0.3418E+00
 -11.214  0.2861E+01  0.3704E+00
 -11.204  0.3061E+01  0.4011E+00
 -11.194  0.3273E+01  0.4338E+00
 -11.184  0.3495E+01  0.4687E+00
 -11.174  0.3728E+01  0.5060E+00
 -11.164  0.3973E+01  0.5457E+00
 -11.154  0.4229E+01  0.5880E+00
 -11.144  0.4497E+01  0.6330E+00
 -11.134  0.4776E+01  0.6808E+00
 -11.124  0.5068E+01  0.7314E+00
 -11.114  0.5372E+01  0.7852E+00
 -11.104  0.5688E+01  0.8420E+00
 -11.094  0.6016E+01  0.9022E+00
 -11.084  0.6356E+01  0.9658E+00
 -11.074  0.6708E+01  0.1033E+01
 -11.064  0.7072E+01  0.1104E+01
 -11.054  0.7448E+01  0.1178E+01
 -11.044  0.7836E+01  0.1256E+01
 -11.034  0.8235E+01  0.1339E+01
 -11.024  0.8646E+01  0.1425E+01
 -11.014  0.9067E+01  0.1516E+01
 -11.004  0.9498E+01  0.1611E+01
 -10.994  0.9940E+01  0.1710E+01
 -10.984  0.1039E+02  0.1814E+01
 -10.974  0.1085E+02  0.1923E+01
 -10.964  0.1132E+02  0.2036E+01
 -10.954  0.1180E+02  0.2154E+01
 -10.944  0.1228E+02  0.2277E+01
 -10.934  0.1277E+02  0.2404E+01
 -10.924  0.1326E+02  0.2537E+01
 -10.914  0.1376E+02  0.2675E+01
 -10.904  0.1427E+02  0.2817E+01
 -10.894  0.1477E+02  0.2965E+01
 -10.884  0.1528E+02  0.3118E+01
 -10.874  0.1579E+02  0.3276E+01
 -10.864  0.1630E+02  0.3439E+01
 -10.854  0.1681E+02  0.3607E+01
 -10.844  0.1731E+02  0.3780E+01
 -10.834  0.1782E+02  0.3958E+01
 -10.824  0.1831E+02  0.4141E+01
 -10.814  0.1880E+02  0.4329E+01
 -10.804  0.1929E+02  0.4522E+01
 -10.794  0.1976E+02  0.4720E+01
 -10.784  0.2023E+02  0.4922E+01
 -10.774  0.2068E+02  0.5129E+01
 -10.764  0.2113E+02  0.5340E+01
 -10.754  0.2156E+02  0.5556E+01
 -10.744  0.2197E+02  0.5775E+01
 -10.734  0.2237E+02  0.5999E+01
 -10.724  0.2276E+02  0.6227E+01
 -10.714  0.2312E+02  0.6458E+01
 -10.704  0.2347E+02  0.6693E+01
 -10.694  0.2380E+02  0.6931E+01
 -10.684  0.2410E+02  0.7172E+01
 -10.674  0.2439E+02  0.7416E+01
 -10.664  0.2465E+02  0.7662E+01
 -10.654  0.2489E+02  0.7911E+01
 -10.644  0.2511E+02  0.8162E+01
 -10.634  0.2530E+02  0.8415E+01
 -10.624  0.2546E+02  0.8670E+01
 -10.614  0.2560E+02  0.8926E+01
 -10.604  0.2571E+02  0.9183E+01
 -10.594  0.2580E+02  0.9441E+01
 -10.584  0.2586E+02  0.9699E+01
 -10.574  0.2589E+02  0.9958E+01
 -10.564  0.2590E+02  0.1022E+02
 -10.554  0.2588E+02  0.1048E+02
 -10.544  0.2583E+02  0.1073E+02
 -10.534  0.2575E+02  0.1099E+02
 -10.524  0.2565E+02  0.1125E+02
 -10.514  0.2552E+02  0.1150E+02
 -10.504  0.2537E+02  0.1176E+02
 -10.494  0.2518E+02  0.1201E+02
 -10.484  0.2498E+02  0.1226E+02
 -10.474  0.2475E+02  0.1251E+02
 -10.464  0.2450E+02  0.1275E+02
 -10.454  0.2422E+02  0.1299E+02
 -10.444  0.2392E+02  0.1323E+02
 -10.434  0.2360E+02  0.1347E+02
 -10.424  0.2326E+02  0.1370E+02
 -10.414  0.2290E+02  0.1393E+02
 -10.404  0.2252E+02  0.1416E+02
 -10.394  0.2213E+02  0.1438E+02
 -10.384  0.2172E+02  0.1459E+02
 -10.374  0.2129E+02  0.1481E+02
 -10.364  0.2085E+02  0.1502E+02
 -10.354  0.2040E+02  0.1522E+02
 -10.344  0.1994E+02  0.1542E+02
 -10.334  0.1947E+02  0.1561E+02
 -10.324  0.1898E+02  0.1580E+02
 -10.314  0.1849E+02  0.1599E+02
 -10.304  0.1800E+02  0.1617E+02
 -10.294  0.1750E+02  0.1634E+02
 -10.284  0.1699E+02  0.1651E+02
 -10.274  0.1648E+02  0.1668E+02
 -10.264  0.1597E+02  0.1684E+02
 -10.254  0.1546E+02  0.1699E+02
 -10.244  0.1495E+02  0.1714E+02
 -10.234  0.1444E+02  0.1729E+02
 -10.224  0.1394E+02  0.1743E+02
 -10.214  0.1343E+02  0.1756E+02
 -10.204  0.1294E+02  0.1769E+02
 -10.194  0.1244E+02  0.1781E+02
 -10.184  0.1196E+02  0.1793E+02
 -10.174  0.1147E+02  0.1805E+02
 -10.164  0.1100E+02  0.1816E+02
 -10.154  0.1054E+02  0.1826E+02
 -10.144  0.1008E+02  0.1836E+02
 -10.134  0.9636E+01  0.1846E+02
 -10.124  0.9200E+01  0.1855E+02
 -10.114  0.8774E+01  0.1864E+02
 -10.104  0.8358E+01  0.1872E+02
 -10.094  0.7954E+01  0.1880E+02
 -10.084  0.7562E+01  0.1888E+02
 -10.074  0.7181E+01  0.1895E+02
 -10.064  0.6812E+01  0.1902E+02
 -10.054  0.6455E+01  0.1908E+02
 -10.044  0.6110E+01  0.1914E+02
 -10.034  0.5777E+01  0.1920E+02
 -10.024  0.5457E+01  0.1926E+02
 -10.014  0.5149E+01  0.1931E+02
 -10.004  0.4853E+01  0.1936E+02
  -9.994  0.4569E+01  0.1940E+02
  -9.984  0.4297E+01  0.1945E+02
  -9.974  0.4037E+01  0.1949E+02
  -9.964  0.3788E+01  0.1952E+02
  -9.954  0.3551E+01  0.1956E+02
  -9.944  0.3326E+01  0.1959E+02
  -9.934  0.3111E+01  0.1962E+02
  -9.924  0.2907E+01  0.1965E+02
  -9.914  0.2713E+01  0.1968E+02
  -9.904  0.2530E+01  0.1971E+02
  -9.894  0.2356E+01  0.1973E+02
  -9.884  0.2192E+01  0.1975E+02
  -9.874  0.2037E+01  0.1977E+02
  -9.864  0.1891E+01  0.1979E+02
  -9.854  0.1754E+01  0.1981E+02
  -9.844  0.1625E+01  0.1982E+02
  -9.834  0.1503E+01  0.1984E+02
  -9.824  0.1390E+01  0.1985E+02
  -9.814  0.1283E+01  0.1987E+02
  -9.804  0.1183E+01  0.1988E+02
  -9.794  0.1090E+01  0.1989E+02
  -9.784  0.1003E+01  0.1990E+02
  -9.774  0.9225E+00  0.1991E+02
  -9.764  0.8471E+00  0.1992E+02
  -9.754  0.7771E+00  0.1992E+02
  -9.744  0.7121E+00  0.1993E+02
  -9.734  0.6518E+00  0.1994E+02
  -9.724  0.5959E+00  0.1994E+02
  -9.714  0.5443E+00  0.1995E+02
  -9.704  0.4965E+00  0.1995E+02
  -9.694  0.4525E+00  0.1996E+02
  -9.684  0.4119E+00  0.1996E+02
  -9.674  0.3746E+00  0.1997E+02
  -9.664  0.3402E+00  0.1997E+02
  -9.654  0.3087E+00  0.1997E+02
  -9.644  0.2798E+00  0.1998E+02
  -9.634  0.2533E+00  0.1998E+02
  -9.624  0.2291E+00  0.1998E+02
  -9.614  0.2069E+00  0.1998E+02
  -9.604  0.1867E+00  0.1998E+02
  -9.594  0.1683E+00  0.1999E+02
  -9.584  0.1515E+00  0.1999E+02
  -9.574  0.1363E+00  0.1999E+02
  -9.564  0.1224E+00  0.1999E+02
  -9.554  0.1099E+00  0.1999E+02
  -9.544  0.9849E-01  0.1999E+02
  -9.534  0.8819E-01  0.1999E+02
  -9.524  0.7888E-01  0.1999E+02
  -9.514  0.7048E-01  0.1999E+02
  -9.504  0.6290E-01  0.2000E+02
  -9.494  0.5607E-01  0.2000E+02
  -9.484  0.4993E-01  0.2000E+02
  -9.474  0.4441E-01  0.2000E+02
  -9.464  0.3946E-01  0.2000E+02
  -9.454  0.3502E-01  0.2000E+02
  -9.444  0.3105E-01  0.2000E+02
  -9.434  0.2750E-01  0.2000E+02
  -9.424  0.2432E-01  0.2000E+02
  -9.414  0.2149E-01  0.2000E+02
  -9.404  0.1897E-01  0.2000E+02
  -9.394  0.1672E-01  0.2000E+02
  -9.384  0.1473E-01  0.2000E+02
  -9.374  0.1296E-01  0.2000E+02
  -9.364  0.1138E-01  0.2000E+02
  -9.354  0.9992E-02  0.2000E+02
  -9.344  0.8761E-02  0.2000E+02
  -9.334  0.7672E-02  0.2000E+02
  -9.324  0.6712E-02  0.2000E+02
  -9.314  0.5865E-02  0.2000E+02
  -9.304  0.5119E-02  0.2000E+02
  -9.294  0.4463E-02  0.2000E+02
  -9.284  0.3887E-02  0.2000E+02
  -9.274  0.3381E-02  0.2000E+02
  -9.264  0.2938E-02  0.2000E+02
  -9.254  0.2550E-02  0.2000E+02
  -9.244  0.2211E-02  0.2000E+02
  -9.234  0.1915E-02  0.2000E+02
  -9.224  0.1657E-02  0.2000E+02
  -9.214  0.1431E-02  0.2000E+02
  -9.204  0.1235E-02  0.2000E+02
  -9.194  0.1065E-02  0.2000E+02
  -9.184  0.9173E-03  0.2000E+02
  -9.174  0.7891E-03  0.2000E+02
  -9.164  0.6781E-03  0.2000E+02
  -9.154  0.5820E-03  0.2000E+02
  -9.144  0.4990E-03  0.2000E+02
  -9.134  0.4273E-03  0.2000E+02
  -9.124  0.3655E-03  0.2000E+02
  -9.114  0.3123E-03  0.2000E+02
  -9.104  0.2666E-03  0.2000E+02
  -9.094  0.2273E-03  0.2000E+02
  -9.084  0.1935E-03  0.2000E+02
  -9.074  0.1646E-03  0.2000E+02
  -9.064  0.1399E-03  0.2000E+02
  -9.054  0.1187E-03  0.2000E+02
  -9.044  0.1006E-03  0.2000E+02
  -9.034  0.8521E-04  0.2000E+02
  -9.024  0.7208E-04  0.2000E+02
  -9.014  0.6090E-04  0.2000E+02
  -9.004  0.5139E-04  0.2000E+02
  -8.994  0.4332E-04  0.2000E+02
  -8.984  0.3648E-04  0.2000E+02
  -8.974  0.3068E-04  0.2000E+02
  -8.964  0.2577E-04  0.2000E+02
  -8.954  0.2163E-04  0.2000E+02
  -8.944  0.1813E-04  0.2000E+02
  -8.934  0.1518E-04  0.2000E+02
  -8.924  0.1269E-04  0.2000E+02
  -8.914  0.1061E-04  0.2000E+02
  -8.904  0.8849E-05  0.2000E+02
  -8.894  0.7376E-05  0.2000E+02
  -8.884  0.6140E-05  0.2000E+02
  -8.874  0.5106E-05  0.2000E+02
  -8.864  0.4242E-05  0.2000E+02
  -8.854  0.3519E-05  0.2000E+02
  -8.844  0.2917E-05  0.2000E+02
  -8.834  0.2414E-05  0.2000E+02
  -8.824  0.1996E-05  0.2000E+02
  -8.814  0.1649E-05  0.2000E+02
  -8.804  0.1360E-05  0.2000E+02
  -8.794  0.1121E-05  0.2000E+02
  -8.784  0.9227E-06  0.2000E+02
  -8.774  0.7587E-06  0.2000E+02
  -8.764  0.6231E-06  0.2000E+02
  -8.754  0.5111E-06  0.2000E+02
  -8.744  0.4188E-06  0.2000E+02
  -8.734  0.3428E-06  0.2000E+02
  -8.724  0.2802E-06  0.2000E+02
  -8.714  0.2288E-06  0.2000E+02
  -8.704  0.1866E-06  0.2000E+02
  -8.694  0.1521E-06  0.2000E+02
  -8.684  0.1237E-06  0.2000E+02
  -8.674  0.1006E-06  0.2000E+02
  -8.664  0.8167E-07  0.2000E+02
  -8.654  0.6623E-07  0.2000E+02
  -8.644  0.5365E-07  0.2000E+02
  -8.634  0.4341E-07  0.2000E+02
  -8.624  0.3509E-07  0.2000E+02
  -8.614  0.2833E-07  0.2000E+02
  -8.604  0.2284E-07  0.2000E+02
  -8.594  0.1840E-07  0.2000E+02
  -8.584  0.1480E-07  0.2000E+02
  -8.574  0.1189E-07  0.2000E+02
  -8.564  0.9548E-08  0.2000E+02
  -8.554  0.7655E-08  0.2000E+02
  -8.544  0.6131E-08  0.2000E+02
  -8.534  0.4904E-08  0.2000E+02
  -8.524  0.3918E-08  0.2000E+02
  -8.514  0.3127E-08  0.2000E+02
  -8.504  0.2493E-08  0.2000E+02
  -8.494  0.1985E-08  0.2000E+02
  -8.484  0.1579E-08  0.2000E+02
  -8.474  0.1254E-08  0.2000E+02
  -8.464  0.9953E-09  0.2000E+02
  -8.454  0.7889E-09  0.2000E+02
  -8.444  0.6246E-09  0.2000E+02
  -8.434  0.4939E-09  0.2000E+02
  -8.424  0.3901E-09  0.2000E+02
  -8.414  0.3078E-09  0.2000E+02
  -8.404  0.2426E-09  0.2000E+02
  -8.394  0.1909E-09  0.2000E+02
  -8.384  0.1501E-09  0.2000E+02
  -8.374  0.1179E-09  0.2000E+02
  -8.364  0.9249E-10  0.2000E+02
  -8.354  0.7247E-10  0.2000E+02
  -8.344  0.5671E-10  0.2000E+02
  -8.334  0.4433E-10  0.2000E+02
  -8.324  0.3462E-10  0.2000E+02
  -8.314  0.2700E-10  0.2000E+02
  -8.304  0.2103E-10  0.2000E+02
  -8.294  0.1637E-10  0.2000E+02
  -8.284  0.1272E-10  0.2000E+02
  -8.274  0.9875E-11  0.2000E+02
  -8.264  0.7658E-11  0.2000E+02
  -8.254  0.5931E-11  0.2000E+02
  -8.244  0.4589E-11  0.2000E+02
  -8.234  0.3546E-11  0.2000E+02
  -8.224  0.2737E-11  0.2000E+02
  -8.214  0.2110E-11  0.2000E+02
  -8.204  0.1625E-11  0.2000E+02
  -8.194  0.1250E-11  0.2000E+02
  -8.184  0.9602E-12  0.2000E+02
  -8.174  0.7369E-12  0.2000E+02
  -8.164  0.5648E-12  0.2000E+02
  -8.154  0.4324E-12  0.2000E+02
  -8.144  0.3307E-12  0.2000E+02
  -8.134  0.2526E-12  0.2000E+02
  -8.124  0.1927E-12  0.2000E+02
  -8.114  0.1469E-12  0.2000E+02
  -8.104  0.1118E-12  0.2000E+02
  -8.094  0.8500E-13  0.2000E+02
  -8.084  0.6455E-13  0.2000E+02
  -8.074  0.4897E-13  0.2000E+02
  -8.064  0.3710E-13  0.2000E+02
  -8.054  0.2808E-13  0.2000E+02
  -8.044  0.2122E-13  0.2000E+02
  -8.034  0.1602E-13  0.2000E+02
  -8.024  0.1208E-13  0.2000E+02
  -8.014  0.9103E-14  0.2000E+02
  -8.004  0.6849E-14  0.2000E+02
  -7.994  0.5147E-14  0.2000E+02
  -7.984  0.3864E-14  0.2000E+02
  -7.974  0.2897E-14  0.2000E+02
  -7.964  0.2170E-14  0.2000E+02
  -7.954  0.1623E-14  0.2000E+02
  -7.944  0.1213E-14  0.2000E+02
  -7.934  0.9050E-15  0.2000E+02
  -7.924  0.6746E-15  0.2000E+02
  -7.914  0.5023E-15  0.2000E+02
  -7.904  0.3735E-15  0.2000E+02
  -7.894  0.2775E-15  0.2000E+02
  -7.884  0.2059E-15  0.2000E+02
  -7.874  0.1526E-15  0.2000E+02
  -7.864  0.1129E-15  0.2000E+02
  -7.854  0.8350E-16  0.2000E+02
  -7.844  0.6167E-16  0.2000E+02
  -7.834  0.4549E-16  0.2000E+02
  -7.824  0.3351E-16  0.2000E+02
  -7.814  0.2466E-16  0.2000E+02
  -7.804  0.1813E-16  0.2000E+02
  -7.794  0.1331E-16  0.2000E+02
  -7.784  0.9762E-17  0.2000E+02
  -7.774  0.7150E-17  0.2000E+02
  -7.764  0.5231E-17  0.2000E+02
  -7.754  0.3823E-17  0.2000E+02
  -7.744  0.2791E-17  0.2000E+02
  -7.734  0.2035E-17  0.2000E+02
  -7.724  0.1482E-17  0.2000E+02
  -7.714  0.1078E-17  0.2000E+02
  -7.704  0.7829E-18  0.2000E+02
  -7.694  0.5682E-18  0.2000E+02
  -7.684  0.4118E-18  0.2000E+02
  -7.674  0.2981E-18  0.2000E+02
  -7.664  0.2156E-18  0.2000E+02
  -7.654  0.1557E-18  0.2000E+02
  -7.644  0.1123E-18  0.2000E+02
  -7.634  0.8095E-19  0.2000E+02
  -7.624  0.5827E-19  0.2000E+02
  -7.614  0.4189E-19  0.2000E+02
  -7.604  0.3008E-19  0.2000E+02
  -7.594  0.2157E-19  0.2000E+02
  -7.584  0.1545E-19  0.2000E+02
  -7.574  0.1106E-19  0.2000E+02
  -7.564  0.7904E-20  0.2000E+02
  -7.554  0.5642E-20  0.2000E+02
  -7.544  0.4023E-20  0.2000E+02
  -7.534  0.2865E-20  0.2000E+02
  -7.524  0.2038E-20  0.2000E+02
  -7.514  0.1448E-20  0.2000E+02
  -7.504  0.1028E-20  0.2000E+02
  -7.494  0.7285E-21  0.2000E+02
  -7.484  0.5158E-21  0.2000E+02
  -7.474  0.3648E-21  0.2000E+02
  -7.464  0.2577E-21  0.2000E+02
  -7.454  0.1818E-21  0.2000E+02
  -7.444  0.1281E-21  0.2000E+02
  -7.434  0.9018E-22  0.2000E+02
  -7.424  0.6340E-22  0.2000E+02
  -7.414  0.4452E-22  0.2000E+02
  -7.404  0.3123E-22  0.2000E+02
  -7.394  0.2188E-22  0.2000E+02
  -7.384  0.1531E-22  0.2000E+02
  -7.374  0.1070E-22  0.2000E+02
  -7.364  0.7470E-23  0.2000E+02
  -7.354  0.5209E-23  0.2000E+02
  -7.344  0.3628E-23  0.2000E+02
  -7.334  0.2524E-23  0.2000E+02
  -7.324  0.1754E-23  0.2000E+02
  -7.314  0.1217E-23  0.2000E+02
  -7.304  0.8436E-24  0.2000E+02
  -7.294  0.5841E-24  0.2000E+02
  -7.284  0.4040E-24  0.2000E+02
  -7.274  0.2790E-24  0.2000E+02
  -7.264  0.1925E-24  0.2000E+02
  -7.254  0.1327E-24  0.2000E+02
  -7.244  0.9133E-25  0.2000E+02
  -7.234  0.6279E-25  0.2000E+02
  -7.224  0.4312E-25  0.2000E+02
  -7.214  0.2957E-25  0.2000E+02
  -7.204  0.2026E-25  0.2000E+02
  -7.194  0.1386E-25  0.2000E+02
  -7.184  0.9476E-26  0.2000E+02
  -7.174  0.6469E-26  0.2000E+02
  -7.164  0.4411E-26  0.2000E+02
  -7.154  0.3004E-26  0.2000E+02
  -7.144  0.2044E-26  0.2000E+02
  -7.134  0.1389E-26  0.2000E+02
  -7.124  0.9423E-27  0.2000E+02
  -7.114  0.6388E-27  0.2000E+02
  -7.104  0.4325E-27  0.2000E+02
  -7.094  0.2925E-27  0.2000E+02
  -7.084  0.1976E-27  0.2000E+02
  -7.074  0.1333E-27  0.2000E+02
  -7.064  0.8982E-28  0.2000E+02
  -7.054  0.6045E-28  0.2000E+02
  -7.044  0.4064E-28  0.2000E+02
  -7.034  0.2729E-28  0.2000E+02
  -7.024  0.1830E-28  0.2000E+02
  -7.014  0.1226E-28  0.2000E+02
  -7.004  0.8204E-29  0.2000E+02
  -6.994  0.5483E-29  0.2000E+02
  -6.984  0.3660E-29  0.2000E+02
  -6.974  0.2440E-29  0.2000E+02
  -6.964  0.1625E-29  0.2000E+02
  -6.954  0.1081E-29  0.2000E+02
  -6.944  0.7183E-30  0.2000E+02
  -6.934  0.4766E-30  0.2000E+02
  -6.924  0.3159E-30  0.2000E+02
  -6.914  0.2092E-30  0.2000E+02
  -6.904  0.1383E-30  0.2000E+02
  -6.894  0.9135E-31  0.2000E+02
  -6.884  0.6026E-31  0.2000E+02
  -6.874  0.3971E-31  0.2000E+02
  -6.864  0.2613E-31  0.2000E+02
  -6.854  0.1718E-31  0.2000E+02
  -6.844  0.1128E-31  0.2000E+02
  -6.834  0.7397E-32  0.2000E+02
  -6.824  0.4845E-32  0.2000E+02
  -6.814  0.3170E-32  0.2000E+02
  -6.804  0.2072E-32  0.2000E+02
  -6.794  0.1352E-32  0.2000E+02
  -6.784  0.8815E-33  0.2000E+02
  -6.774  0.5740E-33  0.2000E+02
  -6.764  0.3733E-33  0.2000E+02
  -6.754  0.2425E-33  0.2000E+02
  -6.744  0.1574E-33  0.2000E+02
  -6.734  0.1020E-33  0.2000E+02
  -6.724  0.6602E-34  0.2000E+02
  -6.714  0.4269E-34  0.2000E+02
  -6.704  0.2757E-34  0.2000E+02
  -6.694  0.1778E-34  0.2000E+02
  -6.684  0.1146E-34  0.2000E+02
  -6.674  0.7372E-35  0.2000E+02
  -6.664  0.4738E-35  0.2000E+02
  -6.654  0.3042E-35  0.2000E+02
  -6.644  0.1950E-35  0.2000E+02
  -6.634  0.1249E-35  0.2000E+02
  -6.624  0.7991E-36  0.2000E+02
  -6.614  0.5106E-36  0.2000E+02
  -6.604  0.3259E-36  0.2000E+02
  -6.594  0.2077E-36  0.2000E+02
  -6.584  0.1322E-36  0.2000E+02
  -6.574  0.8410E-37  0.2000E+02
  -6.564  0.5342E-37  0.2000E+02
  -6.554  0.3389E-37  0.2000E+02
  -6.544  0.2147E-37  0.2000E+02
  -6.534  0.1359E-37  0.2000E+02
  -6.524  0.8592E-38  0.2000E+02
  -6.514  0.5425E-38  0.2000E+02
  -6.504  0.3422E-38  0.2000E+02
  -6.494  0.2155E-38  0.2000E+02
  -6.484  0.1356E-38  0.2000E+02
  -6.474  0.8522E-39  0.2000E+02
  -6.464  0.5349E-39  0.2000E+02
  -6.454  0.3354E-39  0.2000E+02
  -6.444  0.2100E-39  0.2000E+02
  -6.434  0.1313E-39  0.2000E+02
  -6.424  0.8205E-40  0.2000E+02
  -6.414  0.5120E-40  0.2000E+02
  -6.404  0.3191E-40  0.2000E+02
  -6.394  0.1986E-40  0.2000E+02
  -6.384  0.1235E-40  0.2000E+02
  -6.374  0.7670E-41  0.2000E+02
  -6.364  0.4757E-41  0.2000E+02
  -6.354  0.2947E-41  0.2000E+02
  -6.344  0.1824E-41  0.2000E+02
  -6.334  0.1127E-41  0.2000E+02
  -6.324  0.6959E-42  0.2000E+02
  -6.314  0.4291E-42  0.2000E+02
  -6.304  0.2643E-42  0.2000E+02
  -6.294  0.1626E-42  0.2000E+02
  -6.284  0.9989E-43  0.2000E+02
  -6.274  0.6130E-43  0.2000E+02
  -6.264  0.3757E-43  0.2000E+02
  -6.254  0.2300E-43  0.2000E+02
  -6.244  0.1407E-43  0.2000E+02
  -6.234  0.8592E-44  0.2000E+02
  -6.224  0.5242E-44  0.2000E+02
  -6.214  0.3194E-44  0.2000E+02
  -6.204  0.1944E-44  0.2000E+02
  -6.194  0.1182E-44  0.2000E+02
  -6.184  0.7174E-45  0.2000E+02
  -6.174  0.4351E-45  0.2000E+02
  -6.164  0.2635E-45  0.2000E+02
  -6.154  0.1594E-45  0.2000E+02
  -6.144  0.9635E-46  0.2000E+02
  -6.134  0.5815E-46  0.2000E+02
  -6.124  0.3506E-46  0.2000E+02
  -6.114  0.2111E-46  0.2000E+02
  -6.104  0.1270E-46  0.2000E+02
  -6.094  0.7626E-47  0.2000E+02
  -6.084  0.4576E-47  0.2000E+02
  -6.074  0.2742E-47  0.2000E+02
  -6.064  0.1641E-47  0.2000E+02
  -6.054  0.9813E-48  0.2000E+02
  -6.044  0.5860E-48  0.2000E+02
  -6.034  0.3495E-48  0.2000E+02
  -6.024  0.2082E-48  0.2000E+02
  -6.014  0.1239E-48  0.2000E+02
  -6.004  0.7363E-49  0.2000E+02
